EC4 File used by Nordic Electrochemistry Aps
FileVersion:	1.0

SetupInfo
----------------------------------------------------
Name	CV_185158_ 1
EC_Tech	CV
Current Range	100uA
Control Mode	WE
Cell Switch	TRUE
Start	1.100 V
V1	1.100 V
V2	0.100 V
Rate	0.005 V
Nr of Sweeps	0.50
Method.Duration	200.0
Method.Cycle Duration	400.0
Method.Avg.Time	0.2
AC Frequency	0.000E+0 Hz
AC Amplitude	0.0000 V
Index	1
Description	EC Data
Current Mode	2
Current Amplification	0
Control Loop BW	3
Control Option	Normal
Author	Default
dateTime	2023-07-12 18:51:58
Current Range	100uA
Control Mode	WE
Cell Switch	TRUE
Start	1.100 V
V1	1.100 V
V2	0.100 V
Rate	0.005 V
Nr of Sweeps	0.50
Method.Duration	200.0
Method.Cycle Duration	400.0
Method.Avg.Time	0.2
AC Frequency	0.000E+0 Hz
AC Amplitude	0.0000 V
AddOn	
Gas	None
Temp_0	298.15 K
Temp_1	298.15 K
Pressure	100000 Pa
Cell Material	Glass
CounterElectrode	
Ref.Electrode	SHE
R.solution	-1.00 Ohm
IR.compensation	-1.00 Ohm
Electrode.Material	
Electrode.Tip	
Electrode.Area	2.00E-5 m^2
Electrode.ExElectrode	
Loading	0.00E+0 g m^-2
Weight	0.00E+0 g
totWeight	0.00E+0 g
w%	0.00
Serial	
Batch	
Support	
Substrate	
Note	
Inst.Convection	NordEC - ECi-200 - RDE.lvlibp
Convection.Speed	400.0 /min
Application.Name	EC4 DAQ
Application.Version	4.2.105.1
Lib.InterfacePotentiostat	1.0.0.64
Lib.ECi-200	1.1.32.0
Lib.Potentiostat_DAQ	4.1.0.53
DAQ.Driver_Name	DAQmx
DAQ.Driver_Ver	16.1.0
Inst.Potentiostat	ECi-200
Inst.Potentiostat.Mode	WE
DAQ.Device	USB-6212 (OEM)
DAQ.Device.ProductNum	29537
DAQ.Device.SerialNum	27188793
DAQ.Device.Name	Dev1
DAQ.AO.Channel	Dev1/ao0
DAQ.AO.Sampling	100000 Hz;10000
DAQ.AI.Sampling	6003000 Hz;3000
Path	C:\DATEN\temp\CV_185158_ 1.tdms


EC Data
----------------------------------------------------
Channels	3
Channel Names	Time; E; i
Samples  	999; 999; 999
wf_xname	Time; Time; Time
wf_xunit_string	s; s; s
wf_start_offset	0.000000E+0; 0.000000E+0; 0.000000E+0
wf_increment	199.999800E-3; 199.999800E-3; 199.999800E-3
----------------------------------------------------
Time (s)	E (V)	i (A)
0.00000E+0	1.09926	1.29164E-5
2.00000E-1	1.09833	3.00750E-6
4.00000E-1	1.09731	2.01063E-6
5.99999E-1	1.09633	1.51875E-6
7.99999E-1	1.09535	1.22103E-6
9.99999E-1	1.09432	1.01782E-6
1.20000E+0	1.09333	8.78669E-7
1.40000E+0	1.09233	7.69175E-7
1.60000E+0	1.09135	6.83836E-7
1.80000E+0	1.09036	6.13321E-7
2.00000E+0	1.08935	5.54444E-7
2.20000E+0	1.08833	5.02036E-7
2.40000E+0	1.08734	4.51181E-7
2.60000E+0	1.08632	4.20626E-7
2.80000E+0	1.08534	3.85890E-7
3.00000E+0	1.08431	3.59770E-7
3.20000E+0	1.08332	3.32936E-7
3.40000E+0	1.08232	3.07764E-7
3.60000E+0	1.08132	2.88500E-7
3.80000E+0	1.08036	2.68974E-7
4.00000E+0	1.07938	2.41961E-7
4.20000E+0	1.07834	2.31896E-7
4.40000E+0	1.07735	2.16784E-7
4.60000E+0	1.07634	2.03286E-7
4.80000E+0	1.07536	1.93760E-7
5.00000E+0	1.07435	1.78282E-7
5.19999E+0	1.07334	1.67661E-7
5.39999E+0	1.07235	1.59624E-7
5.59999E+0	1.07133	1.40286E-7
5.79999E+0	1.07033	1.37543E-7
5.99999E+0	1.06935	1.25735E-7
6.19999E+0	1.06835	1.18780E-7
6.39999E+0	1.06735	1.12475E-7
6.59999E+0	1.06634	1.02414E-7
6.79999E+0	1.06534	9.47045E-8
6.99999E+0	1.06436	8.76996E-8
7.19999E+0	1.06332	7.56692E-8
7.39999E+0	1.06234	7.72270E-8
7.59999E+0	1.06135	7.13730E-8
7.79999E+0	1.06037	6.86098E-8
7.99999E+0	1.05938	6.06176E-8
8.19999E+0	1.05837	5.46049E-8
8.39999E+0	1.05735	4.95298E-8
8.59999E+0	1.05632	3.90968E-8
8.79999E+0	1.05531	3.66759E-8
8.99999E+0	1.05434	3.64725E-8
9.19999E+0	1.05332	2.82422E-8
9.39999E+0	1.05233	3.00827E-8
9.59999E+0	1.05133	2.53500E-8
9.79999E+0	1.05035	2.16937E-8
9.99999E+0	1.04938	2.19517E-8
1.02000E+1	1.04838	9.29125E-9
1.04000E+1	1.04737	1.19603E-8
1.06000E+1	1.04637	6.97447E-9
1.08000E+1	1.04537	4.76683E-9
1.10000E+1	1.04439	1.93908E-9
1.12000E+1	1.04338	-8.29160E-10
1.14000E+1	1.04233	-5.62643E-9
1.16000E+1	1.04136	-6.06300E-9
1.18000E+1	1.04034	-1.48142E-8
1.20000E+1	1.03935	-1.12869E-8
1.22000E+1	1.03836	-1.43875E-8
1.24000E+1	1.03734	-2.05739E-8
1.26000E+1	1.03634	-1.97255E-8
1.28000E+1	1.03533	-2.20771E-8
1.30000E+1	1.03435	-2.33669E-8
1.32000E+1	1.03332	-3.26638E-8
1.34000E+1	1.03233	-3.08778E-8
1.36000E+1	1.03134	-3.20586E-8
1.38000E+1	1.03033	-3.25398E-8
1.40000E+1	1.02937	-3.26836E-8
1.42000E+1	1.02838	-3.41521E-8
1.44000E+1	1.02736	-3.76843E-8
1.46000E+1	1.02637	-3.86517E-8
1.48000E+1	1.02535	-4.50762E-8
1.50000E+1	1.02434	-4.21343E-8
1.52000E+1	1.02337	-4.47140E-8
1.54000E+1	1.02235	-4.41485E-8
1.56000E+1	1.02135	-4.64008E-8
1.58000E+1	1.02031	-4.85042E-8
1.60000E+1	1.01932	-4.90549E-8
1.62000E+1	1.01835	-4.95460E-8
1.64000E+1	1.01732	-5.90314E-8
1.66000E+1	1.01633	-5.32668E-8
1.68000E+1	1.01531	-5.66452E-8
1.70000E+1	1.01433	-5.49237E-8
1.72000E+1	1.01334	-5.77713E-8
1.74000E+1	1.01232	-5.85849E-8
1.76000E+1	1.01133	-5.67791E-8
1.78000E+1	1.01034	-6.19535E-8
1.80000E+1	1.00932	-6.33822E-8
1.82000E+1	1.00834	-6.24793E-8
1.84000E+1	1.00733	-6.37394E-8
1.86000E+1	1.00632	-6.25041E-8
1.88000E+1	1.00533	-6.59421E-8
1.90000E+1	1.00434	-6.76834E-8
1.92000E+1	1.00335	-6.60115E-8
1.94000E+1	1.00233	-7.47329E-8
1.96000E+1	1.00133	-7.25749E-8
1.98000E+1	1.00033	-7.44452E-8
2.00000E+1	0.99933	-7.03822E-8
2.02000E+1	0.99835	-7.21136E-8
2.04000E+1	0.99734	-7.69207E-8
2.06000E+1	0.99633	-7.58095E-8
2.08000E+1	0.99533	-7.57053E-8
2.10000E+1	0.99434	-8.56471E-8
2.12000E+1	0.99336	-7.90440E-8
2.14000E+1	0.99235	-8.12368E-8
2.16000E+1	0.99137	-7.79824E-8
2.18000E+1	0.99037	-7.93169E-8
2.20000E+1	0.98937	-7.85132E-8
2.22000E+1	0.98838	-7.81610E-8
2.24000E+1	0.98736	-8.30525E-8
2.26000E+1	0.98635	-8.68030E-8
2.28000E+1	0.98536	-8.44118E-8
2.30000E+1	0.98435	-8.47740E-8
2.32000E+1	0.98339	-8.10086E-8
2.34000E+1	0.98238	-8.60589E-8
2.36000E+1	0.98136	-8.53048E-8
2.38000E+1	0.98037	-8.64557E-8
2.40000E+1	0.97937	-9.28703E-8
2.42000E+1	0.97838	-8.83856E-8
2.44000E+1	0.97738	-9.04444E-8
2.46000E+1	0.97637	-9.25627E-8
2.48000E+1	0.97535	-9.18583E-8
2.50000E+1	0.97436	-9.00822E-8
2.52000E+1	0.97337	-9.43040E-8
2.54000E+1	0.97238	-9.37881E-8
2.56000E+1	0.97135	-9.94734E-8
2.58000E+1	0.97033	-9.53855E-8
2.60000E+1	0.96935	-9.51027E-8
2.62000E+1	0.96837	-9.55542E-8
2.64000E+1	0.96738	-9.38427E-8
2.66000E+1	0.96638	-9.59660E-8
2.68000E+1	0.96539	-9.67002E-8
2.70000E+1	0.96438	-9.85209E-8
2.72000E+1	0.96337	-1.03145E-7
2.74000E+1	0.96240	-9.96073E-8
2.76000E+1	0.96138	-9.84613E-8
2.78000E+1	0.96039	-1.01086E-7
2.80000E+1	0.95940	-9.93642E-8
2.82000E+1	0.95841	-9.81686E-8
2.84000E+1	0.95743	-1.00252E-7
2.86000E+1	0.95639	-1.08145E-7
2.88000E+1	0.95536	-1.06270E-7
2.90000E+1	0.95434	-1.06573E-7
2.92000E+1	0.95333	-1.06652E-7
2.94000E+1	0.95236	-1.05427E-7
2.96000E+1	0.95135	-1.04633E-7
2.98000E+1	0.95035	-1.04945E-7
3.00000E+1	0.94936	-1.09638E-7
3.02000E+1	0.94837	-1.14049E-7
3.04000E+1	0.94739	-1.08403E-7
3.06000E+1	0.94639	-1.09013E-7
3.08000E+1	0.94538	-1.10239E-7
3.10000E+1	0.94437	-1.12575E-7
3.12000E+1	0.94338	-1.10358E-7
3.14000E+1	0.94239	-1.09212E-7
3.16000E+1	0.94139	-1.15125E-7
3.18000E+1	0.94038	-1.19387E-7
3.20000E+1	0.93937	-1.15860E-7
3.22000E+1	0.93836	-1.13111E-7
3.24000E+1	0.93738	-1.13533E-7
3.26000E+1	0.93640	-1.17765E-7
3.28000E+1	0.93537	-1.17025E-7
3.30000E+1	0.93434	-1.15567E-7
3.32000E+1	0.93334	-1.19302E-7
3.34000E+1	0.93233	-1.22497E-7
3.36000E+1	0.93132	-1.22324E-7
3.38000E+1	0.93032	-1.19962E-7
3.40000E+1	0.92932	-1.22314E-7
3.42000E+1	0.92832	-1.21614E-7
3.44000E+1	0.92732	-1.22453E-7
3.46000E+1	0.92637	-1.22889E-7
3.48000E+1	0.92537	-1.29373E-7
3.50000E+1	0.92434	-1.26739E-7
3.52000E+1	0.92334	-1.26312E-7
3.54000E+1	0.92235	-1.25722E-7
3.56000E+1	0.92134	-1.26020E-7
3.58000E+1	0.92033	-1.27538E-7
3.60000E+1	0.91933	-1.27364E-7
3.62000E+1	0.91834	-1.27855E-7
3.64000E+1	0.91735	-1.36001E-7
3.66000E+1	0.91636	-1.31854E-7
3.68000E+1	0.91538	-1.32722E-7
3.70000E+1	0.91436	-1.30911E-7
3.72000E+1	0.91335	-1.33134E-7
3.74000E+1	0.91235	-1.31918E-7
3.76000E+1	0.91134	-1.36170E-7
3.78000E+1	0.91034	-1.32514E-7
3.80000E+1	0.90934	-1.42619E-7
3.82000E+1	0.90834	-1.38878E-7
3.84000E+1	0.90737	-1.37256E-7
3.86000E+1	0.90638	-1.38923E-7
3.88000E+1	0.90536	-1.41399E-7
3.90000E+1	0.90437	-1.42351E-7
3.92000E+1	0.90338	-1.40446E-7
3.94000E+1	0.90235	-1.48523E-7
3.96000E+1	0.90134	-1.44807E-7
3.98000E+1	0.90033	-1.47878E-7
4.00000E+1	0.89935	-1.47362E-7
4.02000E+1	0.89836	-1.49257E-7
4.04000E+1	0.89737	-1.48567E-7
4.06000E+1	0.89641	-1.47158E-7
4.08000E+1	0.89539	-1.52164E-7
4.10000E+1	0.89437	-1.59987E-7
4.12000E+1	0.89336	-1.57214E-7
4.14000E+1	0.89237	-1.53871E-7
4.16000E+1	0.89136	-1.58241E-7
4.18000E+1	0.89036	-1.58886E-7
4.20000E+1	0.88934	-1.58281E-7
4.22000E+1	0.88833	-1.63584E-7
4.24000E+1	0.88734	-1.61873E-7
4.26000E+1	0.88634	-1.70723E-7
4.28000E+1	0.88537	-1.67508E-7
4.30000E+1	0.88437	-1.69265E-7
4.32000E+1	0.88337	-1.71036E-7
4.34000E+1	0.88236	-1.70907E-7
4.36000E+1	0.88138	-1.72440E-7
4.38000E+1	0.88040	-1.75292E-7
4.40000E+1	0.87938	-1.78165E-7
4.42000E+1	0.87839	-1.83056E-7
4.44000E+1	0.87737	-1.81126E-7
4.46000E+1	0.87639	-1.86301E-7
4.48000E+1	0.87541	-1.86529E-7
4.50000E+1	0.87439	-1.88821E-7
4.52000E+1	0.87337	-1.90597E-7
4.54000E+1	0.87237	-1.95771E-7
4.56000E+1	0.87138	-1.99899E-7
4.58000E+1	0.87036	-2.02062E-7
4.60000E+1	0.86933	-2.04076E-7
4.62000E+1	0.86833	-2.04294E-7
4.64000E+1	0.86734	-2.10480E-7
4.66000E+1	0.86635	-2.10083E-7
4.68000E+1	0.86540	-2.14251E-7
4.70000E+1	0.86439	-2.17525E-7
4.72000E+1	0.86337	-2.27968E-7
4.74000E+1	0.86238	-2.27070E-7
4.76000E+1	0.86137	-2.27561E-7
4.78000E+1	0.86040	-2.33286E-7
4.80000E+1	0.85938	-2.37041E-7
4.82000E+1	0.85838	-2.38937E-7
4.84000E+1	0.85738	-2.43282E-7
4.86000E+1	0.85638	-2.48273E-7
4.87999E+1	0.85541	-2.55918E-7
4.90000E+1	0.85442	-2.56131E-7
4.92000E+1	0.85341	-2.63062E-7
4.94000E+1	0.85241	-2.67085E-7
4.95999E+1	0.85140	-2.74775E-7
4.97999E+1	0.85041	-2.78094E-7
5.00000E+1	0.84939	-2.85401E-7
5.02000E+1	0.84835	-2.97218E-7
5.03999E+1	0.84736	-2.96261E-7
5.05999E+1	0.84634	-3.06014E-7
5.07999E+1	0.84536	-3.10390E-7
5.10000E+1	0.84440	-3.15207E-7
5.11999E+1	0.84338	-3.25292E-7
5.13999E+1	0.84238	-3.33111E-7
5.15999E+1	0.84139	-3.39079E-7
5.17999E+1	0.84036	-3.55768E-7
5.19999E+1	0.83937	-3.59940E-7
5.21999E+1	0.83835	-3.67272E-7
5.23999E+1	0.83735	-3.76445E-7
5.25999E+1	0.83635	-3.84155E-7
5.27999E+1	0.83536	-3.98016E-7
5.29999E+1	0.83439	-4.05869E-7
5.31999E+1	0.83338	-4.19645E-7
5.33999E+1	0.83239	-4.34628E-7
5.35999E+1	0.83137	-4.43299E-7
5.37999E+1	0.83039	-4.55533E-7
5.39999E+1	0.82940	-4.67876E-7
5.41999E+1	0.82839	-4.81886E-7
5.43999E+1	0.82737	-4.96372E-7
5.45999E+1	0.82636	-5.10094E-7
5.47999E+1	0.82538	-5.29655E-7
5.49999E+1	0.82438	-5.44975E-7
5.51999E+1	0.82338	-5.60002E-7
5.53999E+1	0.82237	-5.78263E-7
5.55999E+1	0.82138	-5.95239E-7
5.57999E+1	0.82037	-6.14027E-7
5.59999E+1	0.81939	-6.34193E-7
5.61999E+1	0.81836	-6.56076E-7
5.63999E+1	0.81737	-6.85276E-7
5.65999E+1	0.81638	-7.03984E-7
5.67999E+1	0.81539	-7.25113E-7
5.69999E+1	0.81442	-7.49223E-7
5.71999E+1	0.81342	-7.76965E-7
5.73999E+1	0.81242	-8.01478E-7
5.75999E+1	0.81144	-8.32866E-7
5.77999E+1	0.81042	-8.61381E-7
5.79999E+1	0.80944	-8.99596E-7
5.81999E+1	0.80842	-9.26827E-7
5.83999E+1	0.80743	-9.59262E-7
5.85999E+1	0.80640	-9.94748E-7
5.87999E+1	0.80542	-1.03193E-6
5.89999E+1	0.80444	-1.06649E-6
5.91999E+1	0.80343	-1.11095E-6
5.93999E+1	0.80241	-1.15180E-6
5.95999E+1	0.80139	-1.20336E-6
5.97999E+1	0.80039	-1.24427E-6
5.99999E+1	0.79941	-1.28690E-6
6.01999E+1	0.79843	-1.33690E-6
6.03999E+1	0.79740	-1.38863E-6
6.05999E+1	0.79642	-1.43793E-6
6.07999E+1	0.79542	-1.49419E-6
6.09999E+1	0.79443	-1.55193E-6
6.11999E+1	0.79345	-1.60648E-6
6.13999E+1	0.79244	-1.66628E-6
6.15999E+1	0.79144	-1.73039E-6
6.17999E+1	0.79044	-1.79445E-6
6.19999E+1	0.78944	-1.85938E-6
6.21999E+1	0.78842	-1.92523E-6
6.23999E+1	0.78742	-2.00058E-6
6.25999E+1	0.78641	-2.07828E-6
6.27999E+1	0.78543	-2.14855E-6
6.29999E+1	0.78443	-2.22626E-6
6.31999E+1	0.78343	-2.30377E-6
6.33999E+1	0.78241	-2.39124E-6
6.35999E+1	0.78142	-2.47462E-6
6.37999E+1	0.78042	-2.56278E-6
6.39999E+1	0.77941	-2.65442E-6
6.41999E+1	0.77845	-2.75076E-6
6.43999E+1	0.77742	-2.84362E-6
6.45999E+1	0.77643	-2.93631E-6
6.47999E+1	0.77544	-3.03311E-6
6.49999E+1	0.77446	-3.13419E-6
6.51999E+1	0.77348	-3.23884E-6
6.53999E+1	0.77248	-3.34510E-6
6.55999E+1	0.77144	-3.46357E-6
6.57999E+1	0.77042	-3.57258E-6
6.59999E+1	0.76943	-3.68743E-6
6.61999E+1	0.76844	-3.79831E-6
6.63999E+1	0.76743	-3.92242E-6
6.65999E+1	0.76644	-4.04733E-6
6.67999E+1	0.76545	-4.16792E-6
6.69999E+1	0.76443	-4.28709E-6
6.71999E+1	0.76344	-4.41937E-6
6.73999E+1	0.76240	-4.54156E-6
6.75999E+1	0.76140	-4.67189E-6
6.77999E+1	0.76039	-4.79970E-6
6.79999E+1	0.75941	-4.93323E-6
6.81999E+1	0.75841	-5.07080E-6
6.83999E+1	0.75743	-5.20846E-6
6.85999E+1	0.75641	-5.34083E-6
6.87999E+1	0.75543	-5.48693E-6
6.89999E+1	0.75441	-5.61608E-6
6.91999E+1	0.75344	-5.75519E-6
6.93999E+1	0.75242	-5.88820E-6
6.95999E+1	0.75141	-6.02194E-6
6.97999E+1	0.75042	-6.16330E-6
6.99999E+1	0.74941	-6.31027E-6
7.01999E+1	0.74840	-6.45858E-6
7.03999E+1	0.74741	-6.61062E-6
7.05999E+1	0.74641	-6.74980E-6
7.07999E+1	0.74541	-6.89937E-6
7.09999E+1	0.74440	-7.04400E-6
7.11999E+1	0.74342	-7.18839E-6
7.13999E+1	0.74246	-7.33033E-6
7.15999E+1	0.74143	-7.47767E-6
7.17999E+1	0.74041	-7.63112E-6
7.19999E+1	0.73939	-7.77796E-6
7.21999E+1	0.73842	-7.91232E-6
7.23999E+1	0.73741	-8.05559E-6
7.25999E+1	0.73639	-8.19555E-6
7.27999E+1	0.73540	-8.33847E-6
7.29999E+1	0.73441	-8.48338E-6
7.31999E+1	0.73340	-8.62201E-6
7.33999E+1	0.73243	-8.76663E-6
7.35999E+1	0.73142	-8.90322E-6
7.37999E+1	0.73043	-9.03981E-6
7.39999E+1	0.72943	-9.18410E-6
7.41999E+1	0.72842	-9.31976E-6
7.43999E+1	0.72744	-9.45737E-6
7.45999E+1	0.72642	-9.59836E-6
7.47999E+1	0.72543	-9.73474E-6
7.49999E+1	0.72443	-9.87759E-6
7.51999E+1	0.72343	-1.00101E-5
7.53999E+1	0.72245	-1.01372E-5
7.55999E+1	0.72145	-1.02740E-5
7.57999E+1	0.72043	-1.04069E-5
7.59999E+1	0.71940	-1.05364E-5
7.61999E+1	0.71840	-1.06751E-5
7.63999E+1	0.71741	-1.08090E-5
7.65999E+1	0.71638	-1.09362E-5
7.67999E+1	0.71539	-1.10709E-5
7.69999E+1	0.71440	-1.11994E-5
7.71999E+1	0.71342	-1.13309E-5
7.73999E+1	0.71245	-1.14491E-5
7.75999E+1	0.71146	-1.15770E-5
7.77999E+1	0.71043	-1.17154E-5
7.79999E+1	0.70944	-1.18500E-5
7.81999E+1	0.70842	-1.19763E-5
7.83999E+1	0.70743	-1.21004E-5
7.85999E+1	0.70642	-1.22269E-5
7.87999E+1	0.70541	-1.23560E-5
7.89999E+1	0.70442	-1.24797E-5
7.91999E+1	0.70343	-1.26027E-5
7.93999E+1	0.70244	-1.27284E-5
7.95999E+1	0.70146	-1.28603E-5
7.97999E+1	0.70045	-1.29902E-5
7.99999E+1	0.69943	-1.31134E-5
8.01999E+1	0.69843	-1.32484E-5
8.03999E+1	0.69742	-1.33873E-5
8.05999E+1	0.69643	-1.35057E-5
8.07999E+1	0.69542	-1.36210E-5
8.09999E+1	0.69442	-1.37499E-5
8.11999E+1	0.69343	-1.38829E-5
8.13999E+1	0.69245	-1.40087E-5
8.15999E+1	0.69148	-1.41345E-5
8.17999E+1	0.69047	-1.42731E-5
8.19999E+1	0.68948	-1.44091E-5
8.21999E+1	0.68847	-1.45404E-5
8.23999E+1	0.68745	-1.46747E-5
8.25999E+1	0.68644	-1.48157E-5
8.27999E+1	0.68543	-1.49535E-5
8.29999E+1	0.68442	-1.50884E-5
8.31999E+1	0.68343	-1.52240E-5
8.33999E+1	0.68244	-1.53602E-5
8.35999E+1	0.68148	-1.54926E-5
8.37999E+1	0.68047	-1.56332E-5
8.39999E+1	0.67946	-1.57745E-5
8.41999E+1	0.67846	-1.59276E-5
8.43999E+1	0.67744	-1.60612E-5
8.45999E+1	0.67644	-1.61947E-5
8.47999E+1	0.67540	-1.63417E-5
8.49999E+1	0.67441	-1.64885E-5
8.51999E+1	0.67343	-1.66297E-5
8.53999E+1	0.67243	-1.67849E-5
8.55999E+1	0.67146	-1.69123E-5
8.57999E+1	0.67042	-1.70692E-5
8.59999E+1	0.66941	-1.72050E-5
8.61999E+1	0.66842	-1.73548E-5
8.63999E+1	0.66740	-1.75037E-5
8.65999E+1	0.66642	-1.76501E-5
8.67999E+1	0.66540	-1.78077E-5
8.69999E+1	0.66441	-1.79566E-5
8.71999E+1	0.66342	-1.81088E-5
8.73999E+1	0.66242	-1.82654E-5
8.75999E+1	0.66143	-1.84229E-5
8.77999E+1	0.66045	-1.85829E-5
8.79999E+1	0.65945	-1.87485E-5
8.81999E+1	0.65845	-1.89105E-5
8.83999E+1	0.65743	-1.90740E-5
8.85999E+1	0.65644	-1.92365E-5
8.87999E+1	0.65542	-1.94037E-5
8.89999E+1	0.65441	-1.95698E-5
8.91999E+1	0.65340	-1.97339E-5
8.93999E+1	0.65239	-1.98910E-5
8.95999E+1	0.65140	-2.00634E-5
8.97999E+1	0.65043	-2.02296E-5
8.99999E+1	0.64942	-2.04124E-5
9.01999E+1	0.64843	-2.06083E-5
9.03999E+1	0.64742	-2.08003E-5
9.05999E+1	0.64642	-2.09658E-5
9.07999E+1	0.64543	-2.11273E-5
9.09999E+1	0.64441	-2.12965E-5
9.11999E+1	0.64343	-2.14503E-5
9.13999E+1	0.64242	-2.15928E-5
9.15999E+1	0.64143	-2.17819E-5
9.17999E+1	0.64047	-2.19807E-5
9.19999E+1	0.63945	-2.21860E-5
9.21999E+1	0.63844	-2.24008E-5
9.23999E+1	0.63743	-2.25729E-5
9.25999E+1	0.63645	-2.27120E-5
9.27999E+1	0.63547	-2.29191E-5
9.29999E+1	0.63443	-2.31309E-5
9.31999E+1	0.63342	-2.33322E-5
9.33999E+1	0.63241	-2.35466E-5
9.35999E+1	0.63139	-2.37401E-5
9.37999E+1	0.63043	-2.39418E-5
9.39999E+1	0.62945	-2.41402E-5
9.41999E+1	0.62843	-2.43405E-5
9.43999E+1	0.62744	-2.45428E-5
9.45999E+1	0.62644	-2.47315E-5
9.47999E+1	0.62544	-2.49437E-5
9.49999E+1	0.62443	-2.51694E-5
9.51999E+1	0.62341	-2.53750E-5
9.53999E+1	0.62243	-2.55879E-5
9.55999E+1	0.62142	-2.57903E-5
9.57999E+1	0.62041	-2.59978E-5
9.59999E+1	0.61943	-2.62164E-5
9.61999E+1	0.61845	-2.64204E-5
9.63999E+1	0.61746	-2.66411E-5
9.65999E+1	0.61642	-2.68598E-5
9.67999E+1	0.61545	-2.70779E-5
9.69999E+1	0.61444	-2.73187E-5
9.71999E+1	0.61343	-2.75499E-5
9.73999E+1	0.61242	-2.77679E-5
9.75999E+1	0.61142	-2.79939E-5
9.77999E+1	0.61044	-2.82155E-5
9.79999E+1	0.60944	-2.84528E-5
9.81999E+1	0.60843	-2.87266E-5
9.83999E+1	0.60747	-2.89472E-5
9.85999E+1	0.60645	-2.92031E-5
9.87999E+1	0.60544	-2.94114E-5
9.89999E+1	0.60445	-2.96208E-5
9.91999E+1	0.60344	-2.98410E-5
9.93999E+1	0.60246	-3.00425E-5
9.95999E+1	0.60143	-3.03023E-5
9.97999E+1	0.60044	-3.05519E-5
9.99999E+1	0.59946	-3.07926E-5
1.00200E+2	0.59847	-3.10439E-5
1.00400E+2	0.59748	-3.12870E-5
1.00600E+2	0.59647	-3.15497E-5
1.00800E+2	0.59547	-3.18355E-5
1.01000E+2	0.59448	-3.20791E-5
1.01200E+2	0.59346	-3.23724E-5
1.01400E+2	0.59245	-3.26260E-5
1.01600E+2	0.59147	-3.28699E-5
1.01800E+2	0.59045	-3.31373E-5
1.02000E+2	0.58946	-3.33817E-5
1.02200E+2	0.58846	-3.36543E-5
1.02400E+2	0.58745	-3.39421E-5
1.02600E+2	0.58645	-3.41925E-5
1.02800E+2	0.58546	-3.44666E-5
1.03000E+2	0.58443	-3.47375E-5
1.03200E+2	0.58342	-3.50266E-5
1.03400E+2	0.58240	-3.53062E-5
1.03600E+2	0.58139	-3.55803E-5
1.03800E+2	0.58041	-3.58657E-5
1.04000E+2	0.57942	-3.61405E-5
1.04200E+2	0.57843	-3.64061E-5
1.04400E+2	0.57742	-3.67036E-5
1.04600E+2	0.57643	-3.69885E-5
1.04800E+2	0.57542	-3.72630E-5
1.05000E+2	0.57445	-3.75600E-5
1.05200E+2	0.57345	-3.78459E-5
1.05400E+2	0.57245	-3.81492E-5
1.05600E+2	0.57146	-3.84386E-5
1.05800E+2	0.57044	-3.87105E-5
1.06000E+2	0.56945	-3.90036E-5
1.06200E+2	0.56843	-3.93085E-5
1.06400E+2	0.56742	-3.95790E-5
1.06600E+2	0.56641	-3.98662E-5
1.06800E+2	0.56541	-4.01609E-5
1.07000E+2	0.56442	-4.04943E-5
1.07200E+2	0.56344	-4.08318E-5
1.07400E+2	0.56240	-4.11670E-5
1.07600E+2	0.56141	-4.14884E-5
1.07800E+2	0.56042	-4.17877E-5
1.08000E+2	0.55944	-4.20494E-5
1.08200E+2	0.55846	-4.23191E-5
1.08400E+2	0.55746	-4.26290E-5
1.08600E+2	0.55648	-4.29833E-5
1.08800E+2	0.55547	-4.33460E-5
1.09000E+2	0.55448	-4.36465E-5
1.09200E+2	0.55349	-4.39552E-5
1.09400E+2	0.55247	-4.42442E-5
1.09600E+2	0.55148	-4.45645E-5
1.09800E+2	0.55047	-4.49243E-5
1.10000E+2	0.54949	-4.52302E-5
1.10200E+2	0.54850	-4.55680E-5
1.10400E+2	0.54748	-4.59150E-5
1.10600E+2	0.54646	-4.62171E-5
1.10800E+2	0.54546	-4.65895E-5
1.11000E+2	0.54446	-4.69324E-5
1.11200E+2	0.54347	-4.72617E-5
1.11400E+2	0.54246	-4.76099E-5
1.11600E+2	0.54147	-4.79164E-5
1.11800E+2	0.54044	-4.82749E-5
1.12000E+2	0.53946	-4.86542E-5
1.12200E+2	0.53848	-4.89594E-5
1.12400E+2	0.53745	-4.93187E-5
1.12600E+2	0.53643	-4.96560E-5
1.12800E+2	0.53546	-4.99701E-5
1.13000E+2	0.53446	-5.03262E-5
1.13200E+2	0.53350	-5.06212E-5
1.13400E+2	0.53247	-5.09992E-5
1.13600E+2	0.53146	-5.13807E-5
1.13800E+2	0.53047	-5.16807E-5
1.14000E+2	0.52950	-5.20524E-5
1.14200E+2	0.52850	-5.23935E-5
1.14400E+2	0.52752	-5.27449E-5
1.14600E+2	0.52649	-5.31621E-5
1.14800E+2	0.52547	-5.34977E-5
1.15000E+2	0.52445	-5.38734E-5
1.15200E+2	0.52347	-5.42273E-5
1.15400E+2	0.52247	-5.45336E-5
1.15600E+2	0.52147	-5.49642E-5
1.15800E+2	0.52046	-5.52955E-5
1.16000E+2	0.51945	-5.56549E-5
1.16200E+2	0.51845	-5.60670E-5
1.16400E+2	0.51747	-5.63611E-5
1.16600E+2	0.51647	-5.67580E-5
1.16800E+2	0.51546	-5.71337E-5
1.17000E+2	0.51447	-5.74936E-5
1.17200E+2	0.51345	-5.79596E-5
1.17400E+2	0.51247	-5.82816E-5
1.17600E+2	0.51147	-5.86197E-5
1.17800E+2	0.51049	-5.89312E-5
1.18000E+2	0.50950	-5.92927E-5
1.18200E+2	0.50850	-5.97188E-5
1.18400E+2	0.50750	-6.01351E-5
1.18600E+2	0.50649	-6.04396E-5
1.18800E+2	0.50549	-6.09707E-5
1.19000E+2	0.50445	-6.12993E-5
1.19200E+2	0.50344	-6.15802E-5
1.19400E+2	0.50245	-6.19653E-5
1.19600E+2	0.50142	-6.23175E-5
1.19800E+2	0.50040	-6.27366E-5
1.20000E+2	0.49942	-6.31236E-5
1.20200E+2	0.49842	-6.34720E-5
1.20400E+2	0.49745	-6.39262E-5
1.20600E+2	0.49645	-6.42471E-5
1.20800E+2	0.49544	-6.46372E-5
1.21000E+2	0.49445	-6.50278E-5
1.21200E+2	0.49344	-6.53556E-5
1.21400E+2	0.49245	-6.57394E-5
1.21600E+2	0.49145	-6.61139E-5
1.21800E+2	0.49045	-6.64793E-5
1.22000E+2	0.48947	-6.68589E-5
1.22200E+2	0.48848	-6.71621E-5
1.22400E+2	0.48749	-6.75072E-5
1.22600E+2	0.48650	-6.79554E-5
1.22800E+2	0.48547	-6.83098E-5
1.23000E+2	0.48446	-6.86793E-5
1.23200E+2	0.48344	-6.90250E-5
1.23400E+2	0.48245	-6.94217E-5
1.23600E+2	0.48143	-6.99100E-5
1.23800E+2	0.48044	-7.02158E-5
1.24000E+2	0.47944	-7.05992E-5
1.24200E+2	0.47843	-7.10184E-5
1.24400E+2	0.47746	-7.13584E-5
1.24600E+2	0.47648	-7.18304E-5
1.24800E+2	0.47547	-7.22103E-5
1.25000E+2	0.47448	-7.25659E-5
1.25200E+2	0.47348	-7.30407E-5
1.25400E+2	0.47248	-7.33397E-5
1.25600E+2	0.47148	-7.37219E-5
1.25800E+2	0.47046	-7.41700E-5
1.26000E+2	0.46946	-7.44889E-5
1.26200E+2	0.46844	-7.49350E-5
1.26400E+2	0.46746	-7.51682E-5
1.26600E+2	0.46650	-7.54764E-5
1.26800E+2	0.46549	-7.60314E-5
1.27000E+2	0.46448	-7.64559E-5
1.27200E+2	0.46349	-7.69174E-5
1.27400E+2	0.46248	-7.73250E-5
1.27600E+2	0.46148	-7.76340E-5
1.27800E+2	0.46046	-7.81364E-5
1.28000E+2	0.45946	-7.85209E-5
1.28200E+2	0.45847	-7.88475E-5
1.28400E+2	0.45747	-7.93051E-5
1.28600E+2	0.45648	-7.95589E-5
1.28800E+2	0.45546	-7.99825E-5
1.29000E+2	0.45445	-8.04193E-5
1.29200E+2	0.45344	-8.06970E-5
1.29400E+2	0.45248	-8.11217E-5
1.29600E+2	0.45148	-8.14565E-5
1.29800E+2	0.45046	-8.17904E-5
1.30000E+2	0.44945	-8.22041E-5
1.30200E+2	0.44847	-8.24591E-5
1.30400E+2	0.44747	-8.29470E-5
1.30600E+2	0.44648	-8.33769E-5
1.30800E+2	0.44549	-8.37800E-5
1.31000E+2	0.44447	-8.42474E-5
1.31200E+2	0.44346	-8.45930E-5
1.31400E+2	0.44246	-8.49575E-5
1.31600E+2	0.44147	-8.54192E-5
1.31800E+2	0.44047	-8.56928E-5
1.32000E+2	0.43944	-8.61915E-5
1.32200E+2	0.43843	-8.66243E-5
1.32400E+2	0.43744	-8.69128E-5
1.32600E+2	0.43646	-8.73636E-5
1.32800E+2	0.43547	-8.77577E-5
1.33000E+2	0.43448	-8.80859E-5
1.33200E+2	0.43347	-8.85810E-5
1.33400E+2	0.43247	-8.87797E-5
1.33600E+2	0.43147	-8.91713E-5
1.33800E+2	0.43049	-8.95920E-5
1.34000E+2	0.42947	-8.98511E-5
1.34200E+2	0.42847	-9.04694E-5
1.34400E+2	0.42749	-9.07070E-5
1.34600E+2	0.42651	-9.13351E-5
1.34800E+2	0.42553	-9.17244E-5
1.35000E+2	0.42449	-9.18856E-5
1.35200E+2	0.42347	-9.24557E-5
1.35400E+2	0.42249	-9.28775E-5
1.35600E+2	0.42148	-9.31942E-5
1.35800E+2	0.42050	-9.37983E-5
1.36000E+2	0.41946	-9.42284E-5
1.36200E+2	0.41845	-9.44916E-5
1.36400E+2	0.41744	-9.48306E-5
1.36600E+2	0.41644	-9.50211E-5
1.36800E+2	0.41546	-9.55505E-5
1.37000E+2	0.41445	-9.59462E-5
1.37200E+2	0.41346	-9.61820E-5
1.37400E+2	0.41246	-9.66744E-5
1.37600E+2	0.41147	-9.69283E-5
1.37800E+2	0.41047	-9.72631E-5
1.38000E+2	0.40947	-9.76533E-5
1.38200E+2	0.40845	-9.79112E-5
1.38400E+2	0.40744	-9.84629E-5
1.38600E+2	0.40644	-9.88368E-5
1.38800E+2	0.40546	-9.91114E-5
1.39000E+2	0.40446	-9.96275E-5
1.39200E+2	0.40347	-9.98294E-5
1.39400E+2	0.40247	-1.00280E-4
1.39600E+2	0.40145	-1.00780E-4
1.39800E+2	0.40046	-1.00975E-4
1.40000E+2	0.39945	-1.01538E-4
1.40200E+2	0.39846	-1.01836E-4
1.40400E+2	0.39745	-1.02138E-4
1.40600E+2	0.39643	-1.02727E-4
1.40800E+2	0.39544	-1.02876E-4
1.41000E+2	0.39447	-1.03350E-4
1.41200E+2	0.39347	-1.03826E-4
1.41400E+2	0.39247	-1.04012E-4
1.41600E+2	0.39146	-1.04544E-4
1.41800E+2	0.39047	-1.04830E-4
1.42000E+2	0.38945	-1.05247E-4
1.42200E+2	0.38843	-1.05860E-4
1.42400E+2	0.38743	-1.05949E-4
1.42600E+2	0.38644	-1.06388E-4
1.42800E+2	0.38545	-1.06986E-4
1.43000E+2	0.38447	-1.07105E-4
1.43200E+2	0.38346	-1.07604E-4
1.43400E+2	0.38246	-1.07903E-4
1.43600E+2	0.38147	-1.08226E-4
1.43800E+2	0.38047	-1.08825E-4
1.44000E+2	0.37949	-1.09033E-4
1.44200E+2	0.37848	-1.09560E-4
1.44400E+2	0.37748	-1.10024E-4
1.44600E+2	0.37648	-1.10186E-4
1.44800E+2	0.37547	-1.10770E-4
1.45000E+2	0.37446	-1.11081E-4
1.45200E+2	0.37345	-1.11396E-4
1.45400E+2	0.37246	-1.11928E-4
1.45600E+2	0.37146	-1.12197E-4
1.45800E+2	0.37046	-1.12681E-4
1.46000E+2	0.36947	-1.13106E-4
1.46200E+2	0.36847	-1.13293E-4
1.46400E+2	0.36750	-1.13983E-4
1.46600E+2	0.36649	-1.14270E-4
1.46800E+2	0.36551	-1.14571E-4
1.47000E+2	0.36452	-1.15194E-4
1.47200E+2	0.36352	-1.15348E-4
1.47400E+2	0.36250	-1.15766E-4
1.47600E+2	0.36151	-1.16675E-4
1.47800E+2	0.36049	-1.16679E-4
1.48000E+2	0.35949	-1.17042E-4
1.48200E+2	0.35849	-1.17212E-4
1.48400E+2	0.35750	-1.17570E-4
1.48600E+2	0.35649	-1.18258E-4
1.48800E+2	0.35550	-1.18430E-4
1.49000E+2	0.35452	-1.19079E-4
1.49200E+2	0.35350	-1.19481E-4
1.49400E+2	0.35249	-1.19451E-4
1.49600E+2	0.35150	-1.20068E-4
1.49800E+2	0.35050	-1.20146E-4
1.50000E+2	0.34952	-1.20709E-4
1.50200E+2	0.34851	-1.21293E-4
1.50400E+2	0.34750	-1.21351E-4
1.50600E+2	0.34650	-1.21954E-4
1.50800E+2	0.34550	-1.22293E-4
1.51000E+2	0.34453	-1.22417E-4
1.51200E+2	0.34353	-1.23105E-4
1.51400E+2	0.34249	-1.23211E-4
1.51600E+2	0.34150	-1.23558E-4
1.51800E+2	0.34050	-1.24277E-4
1.52000E+2	0.33949	-1.24414E-4
1.52200E+2	0.33849	-1.24949E-4
1.52400E+2	0.33747	-1.25416E-4
1.52600E+2	0.33649	-1.25599E-4
1.52800E+2	0.33550	-1.26348E-4
1.53000E+2	0.33451	-1.26349E-4
1.53200E+2	0.33353	-1.26837E-4
1.53400E+2	0.33246	-1.27578E-4
1.53600E+2	0.33144	-1.27513E-4
1.53800E+2	0.33045	-1.28082E-4
1.54000E+2	0.32946	-1.28540E-4
1.54200E+2	0.32848	-1.28825E-4
1.54400E+2	0.32746	-1.29487E-4
1.54600E+2	0.32647	-1.29583E-4
1.54800E+2	0.32545	-1.30023E-4
1.55000E+2	0.32444	-1.30636E-4
1.55200E+2	0.32346	-1.30772E-4
1.55400E+2	0.32246	-1.31582E-4
1.55600E+2	0.32148	-1.31814E-4
1.55800E+2	0.32047	-1.31964E-4
1.56000E+2	0.31947	-1.32671E-4
1.56200E+2	0.31847	-1.32889E-4
1.56400E+2	0.31748	-1.33474E-4
1.56600E+2	0.31647	-1.33926E-4
1.56800E+2	0.31548	-1.34081E-4
1.57000E+2	0.31449	-1.34960E-4
1.57200E+2	0.31350	-1.35295E-4
1.57400E+2	0.31250	-1.35379E-4
1.57600E+2	0.31151	-1.36200E-4
1.57800E+2	0.31049	-1.36567E-4
1.58000E+2	0.30949	-1.37281E-4
1.58200E+2	0.30849	-1.38100E-4
1.58400E+2	0.30746	-1.38046E-4
1.58600E+2	0.30647	-1.38866E-4
1.58800E+2	0.30547	-1.39101E-4
1.59000E+2	0.30448	-1.39216E-4
1.59200E+2	0.30349	-1.39917E-4
1.59400E+2	0.30251	-1.39961E-4
1.59600E+2	0.30150	-1.40520E-4
1.59800E+2	0.30049	-1.41216E-4
1.60000E+2	0.29949	-1.41286E-4
1.60200E+2	0.29849	-1.42123E-4
1.60400E+2	0.29750	-1.42427E-4
1.60600E+2	0.29651	-1.42842E-4
1.60800E+2	0.29552	-1.43638E-4
1.61000E+2	0.29451	-1.43767E-4
1.61200E+2	0.29352	-1.44443E-4
1.61400E+2	0.29251	-1.45120E-4
1.61600E+2	0.29148	-1.45142E-4
1.61800E+2	0.29050	-1.46012E-4
1.62000E+2	0.28949	-1.46337E-4
1.62200E+2	0.28847	-1.46639E-4
1.62400E+2	0.28748	-1.47511E-4
1.62600E+2	0.28647	-1.47467E-4
1.62800E+2	0.28549	-1.48085E-4
1.63000E+2	0.28449	-1.48845E-4
1.63200E+2	0.28349	-1.49106E-4
1.63400E+2	0.28253	-1.50097E-4
1.63600E+2	0.28153	-1.50179E-4
1.63800E+2	0.28053	-1.50378E-4
1.64000E+2	0.27952	-1.51132E-4
1.64200E+2	0.27854	-1.51064E-4
1.64400E+2	0.27753	-1.51733E-4
1.64600E+2	0.27651	-1.52272E-4
1.64800E+2	0.27551	-1.52591E-4
1.65000E+2	0.27452	-1.53964E-4
1.65200E+2	0.27350	-1.53723E-4
1.65400E+2	0.27255	-1.54078E-4
1.65600E+2	0.27154	-1.54875E-4
1.65800E+2	0.27053	-1.54874E-4
1.66000E+2	0.26951	-1.55852E-4
1.66200E+2	0.26850	-1.56339E-4
1.66400E+2	0.26751	-1.56510E-4
1.66600E+2	0.26649	-1.57839E-4
1.66800E+2	0.26550	-1.57908E-4
1.67000E+2	0.26452	-1.58184E-4
1.67200E+2	0.26352	-1.59210E-4
1.67400E+2	0.26254	-1.59135E-4
1.67600E+2	0.26153	-1.60013E-4
1.67800E+2	0.26053	-1.60640E-4
1.68000E+2	0.25953	-1.60741E-4
1.68200E+2	0.25855	-1.61697E-4
1.68400E+2	0.25754	-1.61874E-4
1.68600E+2	0.25653	-1.62361E-4
1.68800E+2	0.25552	-1.63321E-4
1.69000E+2	0.25452	-1.62977E-4
1.69200E+2	0.25352	-1.63931E-4
1.69400E+2	0.25254	-1.64603E-4
1.69600E+2	0.25154	-1.64876E-4
1.69800E+2	0.25053	-1.66291E-4
1.70000E+2	0.24953	-1.66409E-4
1.70200E+2	0.24854	-1.66623E-4
1.70400E+2	0.24754	-1.67619E-4
1.70600E+2	0.24651	-1.67522E-4
1.70800E+2	0.24547	-1.68847E-4
1.71000E+2	0.24447	-1.69330E-4
1.71200E+2	0.24349	-1.69236E-4
1.71400E+2	0.24251	-1.70094E-4
1.71600E+2	0.24155	-1.70158E-4
1.71800E+2	0.24054	-1.70508E-4
1.72000E+2	0.23951	-1.71613E-4
1.72200E+2	0.23847	-1.71762E-4
1.72400E+2	0.23748	-1.72920E-4
1.72600E+2	0.23650	-1.73493E-4
1.72800E+2	0.23549	-1.73521E-4
1.73000E+2	0.23450	-1.74719E-4
1.73200E+2	0.23351	-1.74721E-4
1.73400E+2	0.23251	-1.75129E-4
1.73600E+2	0.23152	-1.76058E-4
1.73800E+2	0.23053	-1.75869E-4
1.74000E+2	0.22954	-1.77138E-4
1.74200E+2	0.22854	-1.77773E-4
1.74400E+2	0.22756	-1.77831E-4
1.74600E+2	0.22657	-1.79117E-4
1.74800E+2	0.22554	-1.79170E-4
1.75000E+2	0.22454	-1.79841E-4
1.75200E+2	0.22353	-1.80675E-4
1.75400E+2	0.22254	-1.80486E-4
1.75600E+2	0.22156	-1.81598E-4
1.75800E+2	0.22053	-1.81978E-4
1.76000E+2	0.21953	-1.82276E-4
1.76200E+2	0.21852	-1.83763E-4
1.76400E+2	0.21751	-1.83570E-4
1.76600E+2	0.21653	-1.84014E-4
1.76800E+2	0.21553	-1.84937E-4
1.77000E+2	0.21453	-1.84732E-4
1.77200E+2	0.21352	-1.86123E-4
1.77400E+2	0.21254	-1.86090E-4
1.77600E+2	0.21156	-1.86213E-4
1.77800E+2	0.21058	-1.88092E-4
1.78000E+2	0.20957	-1.87683E-4
1.78200E+2	0.20857	-1.88499E-4
1.78400E+2	0.20756	-1.89591E-4
1.78600E+2	0.20655	-1.89327E-4
1.78800E+2	0.20554	-1.90243E-4
1.79000E+2	0.20454	-1.90522E-4
1.79200E+2	0.20355	-1.91043E-4
1.79400E+2	0.20254	-1.92598E-4
1.79600E+2	0.20154	-1.92363E-4
1.79800E+2	0.20057	-1.93213E-4
1.80000E+2	0.19955	-1.94366E-4
1.80200E+2	0.19857	-1.94068E-4
1.80400E+2	0.19758	-1.95558E-4
1.80600E+2	0.19658	-1.95774E-4
1.80800E+2	0.19558	-1.96130E-4
1.81000E+2	0.19458	-1.97796E-4
1.81200E+2	0.19357	-1.97529E-4
1.81400E+2	0.19256	-1.98507E-4
1.81600E+2	0.19154	-1.99281E-4
1.81800E+2	0.19057	-1.98954E-4
1.82000E+2	0.18957	-2.00618E-4
1.82200E+2	0.18856	-2.00657E-4
1.82400E+2	0.18757	-2.01192E-4
1.82600E+2	0.18659	-2.02189E-4
1.82800E+2	0.18561	-2.01518E-4
1.83000E+2	0.18459	-2.02726E-4
1.83200E+2	0.18361	-2.03808E-4
1.83400E+2	0.18259	-2.03530E-4
1.83600E+2	0.18156	-2.04986E-4
1.83800E+2	0.18058	-2.05006E-4
1.84000E+2	0.17957	-2.05326E-4
1.84200E+2	0.17859	-2.07060E-4
1.84400E+2	0.17759	-2.06473E-4
1.84600E+2	0.17658	-2.07679E-4
1.84800E+2	0.17559	-2.08418E-4
1.85000E+2	0.17457	-2.08115E-4
1.85200E+2	0.17356	-2.09909E-4
1.85400E+2	0.17255	-2.09656E-4
1.85600E+2	0.17157	-2.10036E-4
1.85800E+2	0.17059	-2.11478E-4
1.86000E+2	0.16956	-2.10833E-4
1.86200E+2	0.16859	-2.12290E-4
1.86400E+2	0.16758	-2.12997E-4
1.86600E+2	0.16659	-2.12824E-4
1.86800E+2	0.16560	-2.14850E-4
1.87000E+2	0.16460	-2.14258E-4
1.87200E+2	0.16361	-2.14847E-4
1.87400E+2	0.16262	-2.16047E-4
1.87600E+2	0.16160	-2.15259E-4
1.87800E+2	0.16060	-2.16379E-4
1.88000E+2	0.15960	-2.17541E-4
1.88200E+2	0.15860	-2.17401E-4
1.88400E+2	0.15759	-2.19589E-4
1.88600E+2	0.15659	-2.19232E-4
1.88800E+2	0.15558	-2.19651E-4
1.89000E+2	0.15457	-2.21282E-4
1.89200E+2	0.15354	-2.20468E-4
1.89400E+2	0.15256	-2.21985E-4
1.89600E+2	0.15155	-2.22646E-4
1.89800E+2	0.15056	-2.22314E-4
1.90000E+2	0.14960	-2.24510E-4
1.90200E+2	0.14858	-2.23867E-4
1.90400E+2	0.14762	-2.24596E-4
1.90600E+2	0.14659	-2.26181E-4
1.90800E+2	0.14559	-2.25265E-4
1.91000E+2	0.14461	-2.26929E-4
1.91200E+2	0.14360	-2.27056E-4
1.91400E+2	0.14260	-2.27271E-4
1.91600E+2	0.14159	-2.29316E-4
1.91800E+2	0.14059	-2.28658E-4
1.92000E+2	0.13961	-2.29188E-4
1.92200E+2	0.13858	-2.30720E-4
1.92400E+2	0.13757	-2.29714E-4
1.92600E+2	0.13658	-2.32004E-4
1.92800E+2	0.13557	-2.32320E-4
1.93000E+2	0.13460	-2.31930E-4
1.93200E+2	0.13360	-2.34361E-4
1.93400E+2	0.13258	-2.33452E-4
1.93600E+2	0.13160	-2.34369E-4
1.93800E+2	0.13059	-2.36030E-4
1.94000E+2	0.12961	-2.34741E-4
1.94200E+2	0.12862	-2.36871E-4
1.94400E+2	0.12761	-2.36876E-4
1.94600E+2	0.12663	-2.36495E-4
1.94800E+2	0.12562	-2.39048E-4
1.95000E+2	0.12463	-2.37994E-4
1.95200E+2	0.12361	-2.39063E-4
1.95400E+2	0.12259	-2.40738E-4
1.95600E+2	0.12161	-2.39317E-4
1.95800E+2	0.12062	-2.41562E-4
1.96000E+2	0.11961	-2.41519E-4
1.96200E+2	0.11864	-2.41055E-4
1.96400E+2	0.11764	-2.43435E-4
1.96600E+2	0.11662	-2.42251E-4
1.96800E+2	0.11563	-2.43680E-4
1.97000E+2	0.11462	-2.44907E-4
1.97200E+2	0.11362	-2.43340E-4
1.97400E+2	0.11261	-2.45731E-4
1.97600E+2	0.11163	-2.45805E-4
1.97800E+2	0.11064	-2.45488E-4
1.98000E+2	0.10965	-2.48133E-4
1.98200E+2	0.10866	-2.46869E-4
1.98400E+2	0.10766	-2.48266E-4
1.98600E+2	0.10664	-2.49789E-4
1.98800E+2	0.10563	-2.48053E-4
1.99000E+2	0.10464	-2.50568E-4
1.99200E+2	0.10363	-2.50314E-4
1.99400E+2	0.10263	-2.50127E-4
1.99600E+2	0.10166	-2.52977E-4
