LabVIEW Measurement	
Writer_Version	2
Reader_Version	2
Separator	Tab
Decimal_Separator	.
Multi_Headings	No
X_Columns	One
Time_Pref	Absolute
Operator	ga38kiv
Date	2023/07/20
Time	12:33:42.5017213821411132813
***End_of_Header***	
	
Channels	7							
Samples	1	1	1	1	1	1	1	
Date	2023/07/20	2023/07/20	2023/07/20	2023/07/20	2023/07/20	2023/07/20	2023/07/20	
Time	12:33:42.5017213821411132813	12:33:42.5017213821411132813	12:33:42.5017213821411132813	12:33:42.5017213821411132813	12:33:42.5017213821411132813	12:33:42.5017213821411132813	12:33:42.5017213821411132813	
X_Dimension	Time	Time	Time	Time	Time	Time	Time	
X0	0.0000000000000000E+0	0.0000000000000000E+0	0.0000000000000000E+0	0.0000000000000000E+0	0.0000000000000000E+0	0.0000000000000000E+0	0.0000000000000000E+0	
Delta_X	1.000000	1.000000	1.000000	1.000000	1.000000	1.000000	1.000000	
***End_of_Header***								
X_Value	Ecell	I_cell	Tip Distance	U Tunnel	I Tip	Bias RHK	U We	Comment
0.000000	0.796786	1.340685E-8	-1.660397E-7	0.002038	1.931812E-11	0.808549	-0.793929
0.125916	0.784565	9.864193E-9	-1.660397E-7	0.002076	1.925323E-11	0.808417	-0.781549
0.250165	0.771998	9.469589E-9	-1.660397E-7	0.002092	1.910240E-11	0.808360	-0.769015
0.375300	0.759443	1.043418E-8	-1.660397E-7	0.002086	1.940581E-11	0.808359	-0.756527
0.501300	0.746884	1.032895E-8	-1.660397E-7	0.002090	1.929707E-11	0.808340	-0.743984
0.627311	0.734338	9.250365E-9	-1.660397E-7	0.002082	1.917694E-11	0.808341	-0.731468
0.750971	0.721806	9.399437E-9	-1.660397E-7	0.002102	1.866132E-11	0.808351	-0.718931
0.878006	0.709246	1.023249E-8	-1.660397E-7	0.002093	1.891738E-11	0.808349	-0.706399
1.001772	0.696647	1.366115E-8	-1.660397E-7	0.002096	1.890422E-11	0.808423	-0.693872
1.127685	0.684104	1.043418E-8	-1.660397E-7	0.002071	1.919448E-11	0.808389	-0.681342
1.253936	0.671552	9.855424E-9	-1.660397E-7	0.002077	1.880426E-11	0.808361	-0.668797
1.378076	0.658979	1.000450E-8	-1.660397E-7	0.002093	1.922078E-11	0.808339	-0.656261
1.503794	0.646419	1.069724E-8	-1.660397E-7	0.002083	1.899805E-11	0.808324	-0.643706
1.629455	0.633863	1.015357E-8	-1.660397E-7	0.002091	1.917606E-11	0.808342	-0.631147
1.753329	0.621311	1.046925E-8	-1.660397E-7	0.002085	1.925060E-11	0.808355	-0.618629
1.879058	0.608747	1.077617E-8	-1.660397E-7	0.002095	1.917431E-11	0.808351	-0.606076
2.003791	0.596187	1.294210E-8	-1.660397E-7	0.002078	1.863063E-11	0.808430	-0.593591
2.129195	0.583653	8.741765E-9	-1.660397E-7	0.002082	1.886213E-11	0.808367	-0.581070
2.254558	0.571106	9.443282E-9	-1.660397E-7	0.002079	1.902787E-11	0.808358	-0.568517
2.381591	0.558560	8.601462E-9	-1.660397E-7	0.002086	1.887616E-11	0.808351	-0.555978
2.505204	0.545987	9.548510E-9	-1.660397E-7	0.002088	1.884284E-11	0.808349	-0.543452
2.631170	0.533426	8.803148E-9	-1.660397E-7	0.002091	1.923131E-11	0.808351	-0.530930
2.756917	0.520904	9.294210E-9	-1.660397E-7	0.002080	1.926375E-11	0.808364	-0.518398
2.882525	0.508334	8.347162E-9	-1.660397E-7	0.002083	1.918834E-11	0.808349	-0.505846
3.007468	0.495769	1.210905E-8	-1.660397E-7	0.002087	1.921114E-11	0.808426	-0.493309
3.132712	0.483273	7.996403E-9	-1.660397E-7	0.002088	1.938213E-11	0.808385	-0.480782
3.257654	0.470716	8.268241E-9	-1.660397E-7	0.002084	1.921026E-11	0.808361	-0.468264
3.382958	0.458143	8.987296E-9	-1.660397E-7	0.002094	1.934092E-11	0.808358	-0.455739
3.508924	0.445571	8.049017E-9	-1.660397E-7	0.002084	1.949087E-11	0.808352	-0.443201
3.633667	0.433014	7.777179E-9	-1.660397E-7	0.002100	1.892264E-11	0.808356	-0.430660
3.759622	0.420473	8.259472E-9	-1.660397E-7	0.002087	1.950665E-11	0.808371	-0.418167
3.884698	0.407944	8.715458E-9	-1.660397E-7	0.002079	1.881829E-11	0.808359	-0.405636
4.009233	0.395389	1.232827E-8	-1.660397E-7	0.002093	1.930234E-11	0.808439	-0.393109
4.135147	0.382859	9.136369E-9	-1.660397E-7	0.002084	1.843333E-11	0.808381	-0.380609
4.260168	0.370298	9.083755E-9	-1.660397E-7	0.002085	1.998368E-11	0.808375	-0.368114
4.384425	0.357777	8.960989E-9	-1.660397E-7	0.002085	1.919623E-11	0.808350	-0.355573
4.510033	0.345230	8.864531E-9	-1.660397E-7	0.002086	1.938389E-11	0.808353	-0.343035
4.634953	0.332667	8.540079E-9	-1.660397E-7	0.002094	1.905067E-11	0.808362	-0.330500
4.761024	0.320102	8.320855E-9	-1.660397E-7	0.002086	1.900156E-11	0.808363	-0.317972
4.886805	0.307555	8.189320E-9	-1.660397E-7	0.002093	1.930847E-11	0.808351	-0.305469
5.011081	0.295022	1.076740E-8	-1.660397E-7	0.002086	1.891913E-11	0.808456	-0.292955
5.136046	0.282538	8.364700E-9	-1.660397E-7	0.002059	1.952770E-11	0.808409	-0.280449
5.262606	0.269975	9.390669E-9	-1.660397E-7	0.002071	1.893842E-11	0.808384	-0.267917
5.388221	0.257390	8.469927E-9	-1.660397E-7	0.002094	1.953734E-11	0.808354	-0.255386
5.511848	0.244868	8.005172E-9	-1.660397E-7	0.002080	1.889721E-11	0.808366	-0.242867
5.638747	0.232332	8.329624E-9	-1.660397E-7	0.002086	1.926726E-11	0.808361	-0.230335
5.762782	0.219769	8.338393E-9	-1.660397E-7	0.002089	1.902962E-11	0.808342	-0.217808
5.887705	0.207222	7.742103E-9	-1.660397E-7	0.002074	1.912608E-11	0.808356	-0.205284
6.013099	0.194666	1.036402E-8	-1.660397E-7	0.002073	1.957593E-11	0.808439	-0.192741
6.139015	0.182128	7.522879E-9	-1.660397E-7	0.002071	1.963293E-11	0.808374	-0.180225
6.265176	0.169571	9.416975E-9	-1.660397E-7	0.002056	1.914625E-11	0.808384	-0.167697
6.390324	0.157004	8.250703E-9	-1.660397E-7	0.002073	1.975745E-11	0.808353	-0.155144
6.514776	0.144452	9.197751E-9	-1.660397E-7	0.002072	1.923832E-11	0.808354	-0.142617
6.640362	0.131895	8.654075E-9	-1.660397E-7	0.002084	1.900682E-11	0.808345	-0.130091
6.766023	0.119341	8.163013E-9	-1.660397E-7	0.002074	1.889195E-11	0.808353	-0.117560
6.890884	0.106798	8.803148E-9	-1.660397E-7	0.002074	1.928655E-11	0.808351	-0.105036
7.015800	0.094252	1.109185E-8	-1.660397E-7	0.002067	1.908662E-11	0.808464	-0.092523
7.140732	0.081666	7.479034E-9	-1.660397E-7	0.002066	1.870780E-11	0.808386	-0.080073
7.267562	0.069129	8.592693E-9	-1.660397E-7	0.002082	1.955313E-11	0.808354	-0.067544
7.392094	0.056592	8.277010E-9	-1.660397E-7	0.002088	1.895421E-11	0.808360	-0.055016
7.517708	0.044026	7.891175E-9	-1.660397E-7	0.002086	1.837721E-11	0.808345	-0.042479
7.643396	0.031435	8.303317E-9	-1.660397E-7	0.002071	1.908223E-11	0.808348	-0.029931
7.768930	0.018860	7.531648E-9	-1.660397E-7	0.002076	1.843772E-11	0.808369	-0.017405
7.893413	0.006304	7.821024E-9	-1.660397E-7	0.002076	1.867448E-11	0.808348	-0.004849
8.019331	-0.006278	1.195121E-8	-1.660397E-7	0.002073	1.897876E-11	0.808476	0.007714
8.144793	-0.018834	7.943789E-9	-1.660397E-7	0.002063	1.904277E-11	0.808382	0.020230
8.268428	-0.031411	6.830131E-9	-1.660397E-7	0.002058	1.926375E-11	0.808371	0.032823
8.394896	-0.043995	8.066555E-9	-1.660397E-7	0.002080	1.869289E-11	0.808354	0.045387
8.519632	-0.056546	7.154582E-9	-1.660397E-7	0.002081	1.904891E-11	0.808352	0.057921
8.644229	-0.069101	8.443620E-9	-1.660397E-7	0.002079	1.916554E-11	0.808350	0.070440
8.769394	-0.081623	7.101969E-9	-1.660397E-7	0.002079	1.877971E-11	0.808367	0.082947
8.896484	-0.094095	4.865882E-9	-1.660397E-7	0.002076	1.910065E-11	0.808371	0.095470
9.020061	-0.106634	7.794717E-9	-1.660397E-7	0.002073	1.890598E-11	0.808463	0.108009
9.146686	-0.119208	5.620013E-9	-1.660397E-7	0.002078	1.912345E-11	0.808351	0.120543
9.272282	-0.131758	5.944465E-9	-1.660397E-7	0.002078	1.859117E-11	0.808362	0.133064
9.397054	-0.144312	5.330638E-9	-1.660397E-7	0.002078	1.882180E-11	0.808371	0.145593
9.522537	-0.156868	5.918158E-9	-1.660397E-7	0.002079	1.889633E-11	0.808352	0.158130
9.646399	-0.169410	4.681734E-9	-1.660397E-7	0.002073	1.850261E-11	0.808354	0.170652
9.772358	-0.181946	6.181227E-9	-1.660397E-7	0.002049	1.884197E-11	0.808399	0.183176
9.897279	-0.194394	4.892189E-9	-1.660397E-7	0.001968	1.847016E-11	0.808547	0.195619
10.022197	-0.206950	8.750534E-9	-1.660397E-7	0.001968	1.929444E-11	0.808667	0.208145
10.148119	-0.219585	6.303993E-9	-1.660397E-7	0.002011	1.920412E-11	0.808469	0.220740
10.274186	-0.232206	5.146489E-9	-1.660397E-7	0.002078	1.922254E-11	0.808364	0.233322
10.399472	-0.244757	4.953572E-9	-1.660397E-7	0.002062	1.901471E-11	0.808362	0.245832
10.524259	-0.257291	5.514786E-9	-1.660397E-7	0.002071	1.918571E-11	0.808369	0.258342
10.648692	-0.269834	5.479710E-9	-1.660397E-7	0.002084	1.874025E-11	0.808353	0.270870
10.774777	-0.282379	4.848344E-9	-1.660397E-7	0.002080	1.887353E-11	0.808363	0.283425
10.900605	-0.294927	4.725579E-9	-1.660397E-7	0.002084	1.901559E-11	0.808368	0.295905
11.024869	-0.307447	7.961327E-9	-1.660397E-7	0.002059	1.936898E-11	0.808486	0.308399
11.150225	-0.319984	4.602813E-9	-1.660397E-7	0.002063	1.907697E-11	0.808378	0.320922
11.276614	-0.332547	4.497586E-9	-1.660397E-7	0.002086	1.935846E-11	0.808363	0.333479
11.400325	-0.345107	4.602813E-9	-1.660397E-7	0.002087	1.870780E-11	0.808357	0.346020
11.526615	-0.357672	3.682072E-9	-1.660397E-7	0.002084	1.925761E-11	0.808359	0.358556
11.652384	-0.370222	5.663858E-9	-1.660397E-7	0.002064	1.902611E-11	0.808369	0.371038
11.776719	-0.382752	5.760317E-9	-1.660397E-7	0.002067	1.906996E-11	0.808357	0.383564
11.903470	-0.395262	5.506017E-9	-1.660397E-7	0.002068	1.835616E-11	0.808356	0.396059
12.026835	-0.395840	8.768072E-9	-1.660397E-7	0.002076	1.871394E-11	0.808462	0.394931
12.153958	-0.383285	4.287131E-9	-1.660397E-7	0.002050	1.897788E-11	0.808408	0.382396
12.278413	-0.370793	4.699272E-9	-1.660397E-7	0.002060	1.894544E-11	0.808396	0.369872
12.403337	-0.358260	4.927265E-9	-1.660397E-7	0.002084	1.913485E-11	0.808346	0.357392
12.528041	-0.345690	4.734348E-9	-1.660397E-7	0.002068	1.946982E-11	0.808371	0.344837
12.653726	-0.333128	3.848682E-9	-1.660397E-7	0.002088	1.845525E-11	0.808373	0.332312
12.780006	-0.320565	4.453741E-9	-1.660397E-7	0.002081	1.916905E-11	0.808383	0.319783
12.904644	-0.308049	4.339744E-9	-1.660397E-7	0.002074	1.892176E-11	0.808353	0.307241
13.031058	-0.295530	8.996065E-9	-1.660397E-7	0.002080	1.953033E-11	0.808445	0.294742
13.154544	-0.282968	4.997417E-9	-1.660397E-7	0.002068	1.858767E-11	0.808368	0.282251
13.280754	-0.270414	4.672965E-9	-1.660397E-7	0.002078	1.956628E-11	0.808364	0.269716
13.406335	-0.257884	5.339407E-9	-1.660397E-7	0.002065	1.908750E-11	0.808370	0.257175
13.531903	-0.245357	5.023724E-9	-1.660397E-7	0.002070	1.890335E-11	0.808355	0.244672
13.655709	-0.232791	5.725241E-9	-1.660397E-7	0.002067	1.896473E-11	0.808374	0.232148
13.782635	-0.220248	4.313438E-9	-1.660397E-7	0.002077	1.851401E-11	0.808375	0.219636
13.907918	-0.207685	5.269255E-9	-1.660397E-7	0.002068	1.904365E-11	0.808369	0.207093
14.032757	-0.195103	8.268241E-9	-1.660397E-7	0.002065	1.901822E-11	0.808476	0.194550
14.156831	-0.182575	5.260486E-9	-1.660397E-7	0.002075	1.892439E-11	0.808359	0.182029
14.283467	-0.170009	5.821700E-9	-1.660397E-7	0.002059	1.903050E-11	0.808375	0.169479
14.408177	-0.157470	6.216303E-9	-1.660397E-7	0.002078	1.904453E-11	0.808351	0.156964
14.532762	-0.144916	6.312762E-9	-1.660397E-7	0.002068	1.897613E-11	0.808376	0.144434
14.658129	-0.132361	5.576169E-9	-1.660397E-7	0.002077	1.895158E-11	0.808364	0.131894
14.784656	-0.119790	5.444634E-9	-1.660397E-7	0.002062	1.879637E-11	0.808392	0.119350
14.908863	-0.107261	6.540755E-9	-1.660397E-7	0.002068	1.862011E-11	0.808370	0.106826
15.035551	-0.094689	1.000450E-8	-1.660397E-7	0.002054	1.937073E-11	0.808484	0.094292
15.159836	-0.082220	7.821024E-9	-1.660397E-7	0.002063	1.894982E-11	0.808366	0.081775
15.284345	-0.069688	7.943789E-9	-1.660397E-7	0.002066	1.889809E-11	0.808368	0.069255
15.410135	-0.057134	8.355931E-9	-1.660397E-7	0.002055	1.854207E-11	0.808366	0.056739
15.536595	-0.044576	7.680720E-9	-1.660397E-7	0.002073	1.863502E-11	0.808373	0.044213
15.662129	-0.032013	7.724565E-9	-1.660397E-7	0.002067	1.890510E-11	0.808368	0.031664
15.786645	-0.019444	8.391006E-9	-1.660397E-7	0.002071	1.948122E-11	0.808367	0.019072
15.912099	-0.006884	8.347162E-9	-1.660397E-7	0.002066	1.892264E-11	0.808376	0.006532
16.036610	0.005722	1.167060E-8	-1.660397E-7	0.002061	1.859117E-11	0.808464	-0.006045
16.162689	0.018262	8.592693E-9	-1.660397E-7	0.002064	1.869903E-11	0.808358	-0.018575
16.288126	0.030846	9.443282E-9	-1.660397E-7	0.002063	1.912608E-11	0.808362	-0.031114
16.413353	0.043431	9.127600E-9	-1.660397E-7	0.002066	1.874025E-11	0.808369	-0.043656
16.538303	0.055991	8.785610E-9	-1.660397E-7	0.002061	1.897175E-11	0.808371	-0.056199
16.662683	0.068548	8.487465E-9	-1.660397E-7	0.002054	1.909539E-11	0.808365	-0.068728
16.788039	0.081065	7.829793E-9	-1.660397E-7	0.002062	1.855785E-11	0.808377	-0.081234
16.914572	0.093633	8.557617E-9	-1.660397E-7	0.002057	1.903751E-11	0.808373	-0.093675
17.039950	0.106206	1.192490E-8	-1.660397E-7	0.002060	1.897788E-11	0.808468	-0.106206
17.165205	0.118775	9.031141E-9	-1.660397E-7	0.002029	1.868939E-11	0.808427	-0.118769
17.290213	0.131307	8.882069E-9	-1.660397E-7	0.002052	1.863326E-11	0.808360	-0.131271
17.415451	0.143879	8.838224E-9	-1.660397E-7	0.002048	1.912082E-11	0.808413	-0.143802
17.539708	0.156451	8.355931E-9	-1.660397E-7	0.002041	1.913923E-11	0.808432	-0.156333
17.665373	0.168980	8.601462E-9	-1.660397E-7	0.002062	1.881917E-11	0.808384	-0.168856
17.790298	0.181526	8.575155E-9	-1.660397E-7	0.002056	1.865343E-11	0.808389	-0.181391
17.915818	0.194088	7.645644E-9	-1.660397E-7	0.002069	1.903225E-11	0.808404	-0.193922
18.042303	0.206591	1.132861E-8	-1.660397E-7	0.002065	1.877971E-11	0.808492	-0.206467
18.166369	0.219189	7.926251E-9	-1.660397E-7	0.002080	1.863677E-11	0.808377	-0.218980
18.292902	0.231764	7.610569E-9	-1.660397E-7	0.002070	1.890422E-11	0.808392	-0.231510
18.417198	0.244300	7.628106E-9	-1.660397E-7	0.002076	1.895245E-11	0.808393	-0.244033
18.541721	0.256835	8.338393E-9	-1.660397E-7	0.002072	1.926814E-11	0.808392	-0.256566
18.667716	0.269412	9.048679E-9	-1.660397E-7	0.002060	1.933741E-11	0.808418	-0.269092
18.793919	0.281946	7.970096E-9	-1.660397E-7	0.002066	1.884547E-11	0.808402	-0.281608
18.918431	0.294465	8.601462E-9	-1.660397E-7	0.002069	1.894544E-11	0.808401	-0.294134
19.043426	0.306987	1.198628E-8	-1.660397E-7	0.002078	1.952682E-11	0.808479	-0.306647
19.168783	0.319519	8.794379E-9	-1.660397E-7	0.002053	1.860433E-11	0.808395	-0.319152
19.295022	0.332090	7.908713E-9	-1.660397E-7	0.002077	1.902261E-11	0.808378	-0.331686
19.420346	0.344671	8.838224E-9	-1.660397E-7	0.002064	1.909539E-11	0.808404	-0.344224
19.544498	0.357207	7.917482E-9	-1.660397E-7	0.002063	1.940318E-11	0.808381	-0.356772
19.670621	0.369707	8.960989E-9	-1.660397E-7	0.002059	1.892264E-11	0.808387	-0.369293
19.794610	0.382292	8.566386E-9	-1.660397E-7	0.002046	1.875866E-11	0.808407	-0.381806
19.919972	0.394821	9.478358E-9	-1.660397E-7	0.002064	1.922166E-11	0.808405	-0.394285
20.045416	0.407384	1.194244E-8	-1.660397E-7	0.002065	1.876217E-11	0.808496	-0.406825
20.171342	0.419918	9.188982E-9	-1.660397E-7	0.002053	1.969168E-11	0.808427	-0.419378
20.296338	0.432465	8.654075E-9	-1.660397E-7	0.002052	1.834126E-11	0.808421	-0.431859
20.421509	0.445011	9.969420E-9	-1.660397E-7	0.002055	1.930584E-11	0.808408	-0.444400
20.547879	0.457564	9.013603E-9	-1.660397E-7	0.002058	1.886564E-11	0.808400	-0.456932
20.673092	0.470116	8.654075E-9	-1.660397E-7	0.002070	1.909539E-11	0.808395	-0.469449
20.798018	0.482716	8.671613E-9	-1.660397E-7	0.002033	1.924095E-11	0.808473	-0.482011
20.922938	0.495293	8.636537E-9	-1.660397E-7	0.002027	1.915151E-11	0.808496	-0.494535
21.047854	0.507820	1.267026E-8	-1.660397E-7	0.002045	1.927866E-11	0.808529	-0.507050
21.173776	0.520348	8.794379E-9	-1.660397E-7	0.002064	1.936196E-11	0.808417	-0.519576
21.299786	0.532903	8.996065E-9	-1.660397E-7	0.002070	1.950402E-11	0.808413	-0.532116
21.423870	0.545454	9.881731E-9	-1.660397E-7	0.002063	1.930146E-11	0.808403	-0.544640
21.549786	0.558000	8.987296E-9	-1.660397E-7	0.002066	1.909977E-11	0.808393	-0.557158
21.674706	0.570557	9.004834E-9	-1.660397E-7	0.002071	1.871745E-11	0.808413	-0.569696
21.800624	0.583119	9.250365E-9	-1.660397E-7	0.002063	1.891738E-11	0.808427	-0.582244
21.924837	0.595634	9.276672E-9	-1.660397E-7	0.002068	1.900244E-11	0.808419	-0.594763
22.050764	0.608185	1.286318E-8	-1.660397E-7	0.002065	1.952068E-11	0.808493	-0.607272
22.176848	0.620755	9.074986E-9	-1.660397E-7	0.002070	1.910766E-11	0.808410	-0.619814
22.300858	0.633293	8.864531E-9	-1.660397E-7	0.002066	1.919360E-11	0.808401	-0.632324
22.426849	0.645854	9.723889E-9	-1.660397E-7	0.002064	1.986004E-11	0.808413	-0.644898
22.551768	0.658410	9.311748E-9	-1.660397E-7	0.002057	1.924534E-11	0.808396	-0.657449
22.676688	0.670973	9.153906E-9	-1.660397E-7	0.002068	1.915502E-11	0.808413	-0.669972
22.801606	0.683578	9.908037E-9	-1.660397E-7	0.002044	1.898665E-11	0.808455	-0.682541
22.928845	0.696094	9.320517E-9	-1.660397E-7	0.002068	1.937424E-11	0.808413	-0.695057
23.053835	0.708719	1.170568E-8	-1.660397E-7	0.002052	1.921728E-11	0.808510	-0.707595
23.178944	0.721268	9.162675E-9	-1.660397E-7	0.002067	1.905417E-11	0.808415	-0.720132
23.303942	0.733807	8.978527E-9	-1.660397E-7	0.002066	1.921728E-11	0.808417	-0.732655
23.429083	0.746340	8.241934E-9	-1.660397E-7	0.002076	1.915589E-11	0.808399	-0.745159
23.554013	0.758896	9.425744E-9	-1.660397E-7	0.002058	1.907697E-11	0.808429	-0.757709
23.680270	0.771453	9.381900E-9	-1.660397E-7	0.002069	1.924621E-11	0.808442	-0.770209
23.804189	0.783990	9.837886E-9	-1.660397E-7	0.002065	1.929971E-11	0.808417	-0.782718
23.930286	0.796528	9.101293E-9	-1.660397E-7	0.002069	1.881390E-11	0.808420	-0.795236
24.056276	0.809082	1.314379E-8	-1.660397E-7	0.002057	1.918834E-11	0.808499	-0.807765
24.181324	0.821638	1.003957E-8	-1.660397E-7	0.002059	1.942598E-11	0.808404	-0.820299
24.305241	0.834200	1.024126E-8	-1.660397E-7	0.002058	1.882180E-11	0.808404	-0.832844
24.431191	0.846743	1.030264E-8	-1.660397E-7	0.002051	1.922955E-11	0.808403	-0.845371
24.557173	0.859318	9.960651E-9	-1.660397E-7	0.002055	1.884723E-11	0.808410	-0.857922
24.683183	0.871864	9.311748E-9	-1.660397E-7	0.002052	1.883583E-11	0.808418	-0.870429
24.807103	0.884403	1.009219E-8	-1.660397E-7	0.002058	1.945755E-11	0.808406	-0.882955
24.933053	0.896968	9.522203E-9	-1.660397E-7	0.002053	1.905505E-11	0.808437	-0.895502
25.056975	0.909572	1.307363E-8	-1.660397E-7	0.002042	1.916905E-11	0.808521	-0.908040
25.181976	0.922059	9.452051E-9	-1.660397E-7	0.002066	1.884898E-11	0.808418	-0.920560
25.307926	0.934614	8.996065E-9	-1.660397E-7	0.002060	1.899981E-11	0.808429	-0.933076
25.432853	0.947163	9.592355E-9	-1.660397E-7	0.002059	1.911293E-11	0.808429	-0.945593
25.559771	0.959690	9.872962E-9	-1.660397E-7	0.002066	1.901033E-11	0.808410	-0.958117
25.683692	0.972183	9.890500E-9	-1.660397E-7	0.002077	1.899630E-11	0.808403	-0.970634
25.809609	0.984731	9.951882E-9	-1.660397E-7	0.002060	1.919799E-11	0.808426	-0.983133
25.935651	0.997315	1.093401E-8	-1.660397E-7	0.002041	1.924008E-11	0.808454	-0.995686
26.059755	1.009859	1.402945E-8	-1.660397E-7	0.002053	1.896385E-11	0.808493	-1.008205
26.185674	1.022413	1.181090E-8	-1.660397E-7	0.002050	1.905417E-11	0.808404	-1.020738
26.310595	1.034937	1.172321E-8	-1.660397E-7	0.002052	1.885600E-11	0.808395	-1.033261
26.436516	1.047479	1.060079E-8	-1.660397E-7	0.002049	1.893492E-11	0.808417	-1.045796
26.561432	1.060024	1.082878E-8	-1.660397E-7	0.002047	1.949964E-11	0.808397	-1.058275
26.687354	1.072589	1.010095E-8	-1.660397E-7	0.002044	1.908311E-11	0.808422	-1.070806
26.812270	1.085112	1.072355E-8	-1.660397E-7	0.002049	1.907259E-11	0.808408	-1.083338
26.936190	1.097654	1.160922E-8	-1.660397E-7	0.002048	1.907960E-11	0.808426	-1.095872
27.063107	1.110218	1.403822E-8	-1.660397E-7	0.002049	1.916116E-11	0.808511	-1.108365
27.188027	1.122764	1.052187E-8	-1.660397E-7	0.002054	1.892965E-11	0.808429	-1.120894
27.311947	1.135294	9.802810E-9	-1.660397E-7	0.002069	1.891650E-11	0.808412	-1.133415
27.437863	1.147876	9.925575E-9	-1.660397E-7	0.002065	1.933390E-11	0.808440	-1.145941
27.563782	1.160459	1.082878E-8	-1.660397E-7	0.002035	1.902787E-11	0.808466	-1.158488
27.689734	1.173042	1.032895E-8	-1.660397E-7	0.002024	1.869640E-11	0.808509	-1.171047
27.814656	1.185555	1.088139E-8	-1.660397E-7	0.002054	1.880689E-11	0.808445	-1.183559
27.938663	1.197162	1.101293E-8	-1.660397E-7	0.002061	1.934793E-11	0.808446	-1.194646
28.065581	1.191310	1.474851E-8	-1.660397E-7	0.002055	1.926024E-11	0.808541	-1.187565
28.189503	1.178749	1.127600E-8	-1.660397E-7	0.002059	1.933040E-11	0.808430	-1.175028
28.315420	1.166197	1.070601E-8	-1.660397E-7	0.002049	1.925323E-11	0.808429	-1.162490
28.440342	1.153634	1.098662E-8	-1.660397E-7	0.002059	1.927077E-11	0.808418	-1.149960
28.566261	1.141070	1.147768E-8	-1.660397E-7	0.002054	1.906207E-11	0.808418	-1.137439
28.690179	1.128517	1.058325E-8	-1.660397E-7	0.002057	1.881478E-11	0.808418	-1.124903
28.817098	1.115973	1.098662E-8	-1.660397E-7	0.002060	1.955137E-11	0.808425	-1.112372
28.942018	1.103426	9.837886E-9	-1.660397E-7	0.002057	1.979691E-11	0.808458	-1.099852
29.066935	1.090889	1.473974E-8	-1.660397E-7	0.002044	1.894807E-11	0.808498	-1.087352
29.192853	1.078342	1.056571E-8	-1.660397E-7	0.002055	1.949350E-11	0.808426	-1.074808
29.316773	1.065806	1.002203E-8	-1.660397E-7	0.002050	1.913923E-11	0.808448	-1.062279
29.442692	1.053257	1.028510E-8	-1.660397E-7	0.002043	1.931023E-11	0.808457	-1.049797
29.567614	1.040712	1.051310E-8	-1.660397E-7	0.002057	1.891738E-11	0.808427	-1.037273
29.693530	1.028196	1.029387E-8	-1.660397E-7	0.002035	1.891299E-11	0.808430	-1.024748
29.818449	1.015649	9.978189E-9	-1.660397E-7	0.002039	1.901033E-11	0.808447	-1.012210
29.944370	1.003079	9.478358E-9	-1.660397E-7	0.002052	1.908574E-11	0.808470	-0.999683
30.068290	0.990516	1.340685E-8	-1.660397E-7	0.002054	1.862011E-11	0.808505	-0.987142
30.194206	0.977970	1.060955E-8	-1.660397E-7	0.002062	1.917256E-11	0.808420	-0.974655
30.319126	0.965454	1.004834E-8	-1.660397E-7	0.002052	1.860345E-11	0.808430	-0.962128
30.444047	0.952938	1.044294E-8	-1.660397E-7	0.002050	1.953734E-11	0.808440	-0.949602
30.570966	0.940369	1.074986E-8	-1.660397E-7	0.002073	1.944878E-11	0.808411	-0.937075
30.694882	0.927853	9.776503E-9	-1.660397E-7	0.002050	1.894719E-11	0.808462	-0.924575
30.821801	0.915302	8.925913E-9	-1.660397E-7	0.002067	1.889107E-11	0.808425	-0.912031
30.945721	0.902744	1.011849E-8	-1.660397E-7	0.002058	1.942861E-11	0.808457	-0.899497
31.070642	0.890206	1.349454E-8	-1.660397E-7	0.002050	1.889721E-11	0.808516	-0.886975
31.197561	0.877631	9.031141E-9	-1.660397E-7	0.002058	1.942686E-11	0.808435	-0.874424
31.322479	0.865109	9.320517E-9	-1.660397E-7	0.002058	1.913573E-11	0.808451	-0.861914
31.446400	0.852544	1.010972E-8	-1.660397E-7	0.002068	1.926288E-11	0.808422	-0.849368
31.572319	0.839990	9.197751E-9	-1.660397E-7	0.002066	1.952244E-11	0.808424	-0.836842
31.698237	0.827414	1.017111E-8	-1.660397E-7	0.002054	1.933127E-11	0.808414	-0.824301
31.824155	0.814851	9.723889E-9	-1.660397E-7	0.002072	1.888932E-11	0.808423	-0.811758
31.948076	0.802996	1.016234E-8	-1.660397E-7	0.002062	1.896999E-11	0.808461	-0.800121
32.073995	0.792639	1.301225E-8	-1.660397E-7	0.002060	1.890159E-11	0.808490	-0.789597
32.199913	0.780093	8.829455E-9	-1.660397E-7	0.002067	1.905505E-11	0.808422	-0.777076
32.323830	0.767543	9.206520E-9	-1.660397E-7	0.002052	1.916028E-11	0.808434	-0.764579
32.449752	0.754988	9.338055E-9	-1.660397E-7	0.002056	1.903664E-11	0.808415	-0.752080
32.575670	0.742481	1.043418E-8	-1.660397E-7	0.002044	1.864466E-11	0.808448	-0.739557
32.700589	0.729919	8.417313E-9	-1.660397E-7	0.002063	1.924271E-11	0.808425	-0.726999
32.825509	0.717357	9.013603E-9	-1.660397E-7	0.002063	1.900770E-11	0.808420	-0.714467
32.950427	0.704799	1.140753E-8	-1.660397E-7	0.002075	1.923481E-11	0.808459	-0.701936
33.076344	0.692223	9.092524E-9	-1.660397E-7	0.002054	1.929795E-11	0.808488	-0.689404
33.201264	0.679679	8.583924E-9	-1.660397E-7	0.002048	1.915677E-11	0.808461	-0.676877
33.326184	0.667097	9.776503E-9	-1.660397E-7	0.002071	1.857451E-11	0.808422	-0.664318
33.452101	0.654552	9.285441E-9	-1.660397E-7	0.002062	1.884460E-11	0.808438	-0.651805
33.577024	0.641974	8.583924E-9	-1.660397E-7	0.002064	1.914011E-11	0.808425	-0.639226
33.702941	0.629426	9.031141E-9	-1.660397E-7	0.002059	1.901471E-11	0.808446	-0.626707
33.827858	0.616886	8.820686E-9	-1.660397E-7	0.002055	1.897350E-11	0.808454	-0.614175
33.953777	0.604308	1.113569E-8	-1.660397E-7	0.002064	1.891650E-11	0.808457	-0.601637
34.077697	0.591770	9.925575E-9	-1.660397E-7	0.002058	1.903137E-11	0.808510	-0.589132
34.203616	0.579243	9.136369E-9	-1.660397E-7	0.002048	1.893842E-11	0.808451	-0.576616
34.328536	0.566684	8.750534E-9	-1.660397E-7	0.002045	1.981269E-11	0.808443	-0.564082
34.453455	0.554120	9.022372E-9	-1.660397E-7	0.002053	1.866396E-11	0.808442	-0.551535
34.579376	0.541592	7.996403E-9	-1.660397E-7	0.002051	1.958031E-11	0.808459	-0.539025
34.705293	0.529020	8.180551E-9	-1.660397E-7	0.002065	1.893141E-11	0.808424	-0.526482
34.830215	0.516456	9.495896E-9	-1.660397E-7	0.002046	1.898841E-11	0.808443	-0.513946
34.955133	0.503878	1.201259E-8	-1.660397E-7	0.002066	1.916379E-11	0.808453	-0.501407
35.081048	0.491361	8.373469E-9	-1.660397E-7	0.002049	1.890949E-11	0.808581	-0.488872
35.205971	0.478791	8.171782E-9	-1.660397E-7	0.002062	1.978638E-11	0.808423	-0.476330
35.331889	0.466249	9.180213E-9	-1.660397E-7	0.002055	1.923218E-11	0.808420	-0.463823
35.455810	0.453678	9.381900E-9	-1.660397E-7	0.002058	1.887704E-11	0.808409	-0.451285
35.581728	0.441166	9.057448E-9	-1.660397E-7	0.002043	1.909539E-11	0.808457	-0.438772
35.707645	0.428569	8.127938E-9	-1.660397E-7	0.002059	1.939441E-11	0.808430	-0.426231
35.831565	0.416046	7.987634E-9	-1.660397E-7	0.002042	1.991529E-11	0.808445	-0.413731
35.957485	0.403522	1.204767E-8	-1.660397E-7	0.002036	1.878234E-11	0.808491	-0.401208
36.083404	0.390945	8.697920E-9	-1.660397E-7	0.002066	1.943299E-11	0.808480	-0.388663
36.207321	0.378451	8.662844E-9	-1.660397E-7	0.002024	1.949964E-11	0.808504	-0.376218
36.334239	0.365873	8.654075E-9	-1.660397E-7	0.002051	1.877707E-11	0.808428	-0.363666
36.458161	0.353325	9.452051E-9	-1.660397E-7	0.002056	1.915677E-11	0.808418	-0.351121
36.585077	0.340790	9.794041E-9	-1.660397E-7	0.002039	1.863502E-11	0.808446	-0.338610
36.709999	0.328207	8.478696E-9	-1.660397E-7	0.002052	1.932426E-11	0.808416	-0.326064
36.834918	0.315668	8.697920E-9	-1.660397E-7	0.002040	1.914274E-11	0.808435	-0.313530
36.960836	0.303130	1.192490E-8	-1.660397E-7	0.002031	1.941019E-11	0.808493	-0.301062
37.085756	0.290614	9.031141E-9	-1.660397E-7	0.002048	1.888055E-11	0.808475	-0.288519
37.210673	0.278080	9.609893E-9	-1.660397E-7	0.002028	1.913923E-11	0.808466	-0.276018
37.335592	0.265499	9.013603E-9	-1.660397E-7	0.002050	1.881566E-11	0.808413	-0.263455
37.460512	0.252959	8.469927E-9	-1.660397E-7	0.002047	1.913748E-11	0.808424	-0.250946
37.587432	0.240430	9.118831E-9	-1.660397E-7	0.002051	1.922342E-11	0.808424	-0.238422
37.711352	0.227887	8.759303E-9	-1.660397E-7	0.002051	1.903927E-11	0.808417	-0.225891
37.837271	0.215333	8.969758E-9	-1.660397E-7	0.002043	1.930672E-11	0.808422	-0.213378
37.963189	0.202781	1.189859E-8	-1.660397E-7	0.002047	1.895859E-11	0.808465	-0.200831
38.088109	0.190228	9.066217E-9	-1.660397E-7	0.002038	1.905330E-11	0.808479	-0.188314
38.212029	0.177647	9.250365E-9	-1.660397E-7	0.002050	1.906645E-11	0.808412	-0.175757
38.337947	0.165103	9.118831E-9	-1.660397E-7	0.002046	1.886038E-11	0.808410	-0.163224
38.463866	0.152535	9.267903E-9	-1.660397E-7	0.002053	1.874814E-11	0.808406	-0.150696
38.587786	0.140000	8.996065E-9	-1.660397E-7	0.002050	1.830180E-11	0.808409	-0.138176
38.713705	0.127439	9.925575E-9	-1.660397E-7	0.002035	1.891212E-11	0.808418	-0.125650
38.839623	0.114897	9.741427E-9	-1.660397E-7	0.002036	1.881215E-11	0.808433	-0.113121
38.964540	0.102340	1.256503E-8	-1.660397E-7	0.002027	1.882969E-11	0.808484	-0.100592
39.090460	0.089792	9.425744E-9	-1.660397E-7	0.002023	1.877620E-11	0.808494	-0.088118
39.214379	0.077231	8.452389E-9	-1.660397E-7	0.002012	1.930321E-11	0.808457	-0.075628
39.340297	0.064692	9.039910E-9	-1.660397E-7	0.002037	1.876743E-11	0.808422	-0.063105
39.466218	0.052137	8.838224E-9	-1.660397E-7	0.002037	1.921640E-11	0.808416	-0.050572
39.591137	0.039585	9.329286E-9	-1.660397E-7	0.002035	1.877357E-11	0.808428	-0.038030
39.717063	0.026980	8.513772E-9	-1.660397E-7	0.002047	1.928831E-11	0.808418	-0.025487
39.841975	0.014409	8.925913E-9	-1.660397E-7	0.002050	1.887266E-11	0.808424	-0.012932
39.967894	0.001870	1.074109E-8	-1.660397E-7	0.002040	1.889896E-11	0.808504	-0.000391
40.092813	-0.010729	8.189320E-9	-1.660397E-7	0.002034	1.877620E-11	0.808436	0.012157
40.216732	-0.023330	9.057448E-9	-1.660397E-7	0.002045	1.903839E-11	0.808413	0.024713
40.343649	-0.035890	7.479034E-9	-1.660397E-7	0.002046	1.909188E-11	0.808419	0.037295
40.468568	-0.048442	8.846993E-9	-1.660397E-7	0.002028	1.892352E-11	0.808435	0.049817
40.592488	-0.061000	8.469927E-9	-1.660397E-7	0.002041	1.898315E-11	0.808410	0.062359
40.719408	-0.073545	9.057448E-9	-1.660397E-7	0.002034	1.918746E-11	0.808429	0.074881
40.843328	-0.086041	6.821362E-9	-1.660397E-7	0.002040	1.936810E-11	0.808433	0.087367
40.969247	-0.098562	9.715120E-9	-1.660397E-7	0.002057	1.888581E-11	0.808447	0.099928
41.094165	-0.111090	6.873975E-9	-1.660397E-7	0.002029	1.889896E-11	0.808496	0.112435
41.220082	-0.123643	6.558293E-9	-1.660397E-7	0.002021	1.896473E-11	0.808443	0.124971
41.346004	-0.136202	5.400789E-9	-1.660397E-7	0.002037	1.884723E-11	0.808430	0.137500
41.469925	-0.148780	5.269255E-9	-1.660397E-7	0.002053	1.933040E-11	0.808406	0.150050
41.594842	-0.161307	5.514786E-9	-1.660397E-7	0.002038	1.901822E-11	0.808433	0.162572
41.720759	-0.173862	6.198765E-9	-1.660397E-7	0.002028	1.847279E-11	0.808443	0.175097
41.846678	-0.186429	6.049693E-9	-1.660397E-7	0.002029	1.939967E-11	0.808431	0.187641
41.971605	-0.198990	9.969420E-9	-1.660397E-7	0.002041	1.892965E-11	0.808460	0.200171
42.097518	-0.211580	5.672627E-9	-1.660397E-7	0.002042	1.938213E-11	0.808446	0.212711
42.221438	-0.224126	6.453065E-9	-1.660397E-7	0.002044	1.874463E-11	0.808420	0.225251
42.347355	-0.236660	5.830469E-9	-1.660397E-7	0.002042	1.882355E-11	0.808414	0.237779
42.473274	-0.249183	5.146489E-9	-1.660397E-7	0.002031	1.880163E-11	0.808436	0.250260
42.598195	-0.261751	5.944465E-9	-1.660397E-7	0.002046	1.935407E-11	0.808408	0.262801
42.723114	-0.274289	5.672627E-9	-1.660397E-7	0.002037	1.869289E-11	0.808418	0.275322
42.849032	-0.286840	5.935696E-9	-1.660397E-7	0.002041	1.902436E-11	0.808412	0.287869
42.973951	-0.299388	8.145475E-9	-1.660397E-7	0.002029	1.932601E-11	0.808468	0.300334
43.099870	-0.311902	6.733672E-9	-1.660397E-7	0.002029	1.878409E-11	0.808463	0.312841
43.224788	-0.324413	6.558293E-9	-1.660397E-7	0.002015	1.905768E-11	0.808463	0.325352
43.349708	-0.337018	5.576169E-9	-1.660397E-7	0.002037	1.857802E-11	0.808415	0.337925
43.474629	-0.349583	6.005848E-9	-1.660397E-7	0.002045	1.868763E-11	0.808410	0.350458
43.599545	-0.362136	6.154920E-9	-1.660397E-7	0.002029	1.886301E-11	0.808430	0.362994
43.726465	-0.374658	6.505679E-9	-1.660397E-7	0.002022	1.911819E-11	0.808451	0.375473
43.851388	-0.387144	6.049693E-9	-1.660397E-7	0.002014	1.902524E-11	0.808457	0.387992
43.976305	-0.398307	9.101293E-9	-1.660397E-7	0.002025	1.934180E-11	0.808488	0.398491
44.101223	-0.391332	6.821362E-9	-1.660397E-7	0.002014	1.888230E-11	0.808479	0.390413
44.226141	-0.378798	5.584938E-9	-1.660397E-7	0.002018	1.895158E-11	0.808440	0.377883
44.351060	-0.366289	5.777855E-9	-1.660397E-7	0.002031	1.859205E-11	0.808413	0.365374
44.476981	-0.353755	6.242610E-9	-1.660397E-7	0.002043	1.862888E-11	0.808399	0.352860
44.602899	-0.341186	5.549862E-9	-1.660397E-7	0.002033	1.862537E-11	0.808405	0.340333
44.728818	-0.328605	5.058800E-9	-1.660397E-7	0.002039	1.921026E-11	0.808408	0.327801
44.852738	-0.316080	5.944465E-9	-1.660397E-7	0.002037	1.869991E-11	0.808392	0.315274
44.977657	-0.303571	9.995727E-9	-1.660397E-7	0.002028	1.859556E-11	0.808469	0.302739
45.104573	-0.291002	5.663858E-9	-1.660397E-7	0.002034	1.915765E-11	0.808464	0.290239
45.229492	-0.278450	5.760317E-9	-1.660397E-7	0.002013	1.819043E-11	0.808437	0.277716
45.354411	-0.265895	6.391682E-9	-1.660397E-7	0.002016	1.849208E-11	0.808429	0.265187
45.480330	-0.253387	6.312762E-9	-1.660397E-7	0.002033	1.884460E-11	0.808389	0.252680
45.605249	-0.240824	6.733672E-9	-1.660397E-7	0.002024	1.897525E-11	0.808425	0.240156
45.731168	-0.228265	7.479034E-9	-1.660397E-7	0.002013	1.847367E-11	0.808439	0.227625
45.855088	-0.215726	7.075662E-9	-1.660397E-7	0.002015	1.869289E-11	0.808428	0.215097
45.981007	-0.203177	9.530972E-9	-1.660397E-7	0.002026	1.865869E-11	0.808473	0.202586
46.106926	-0.190583	5.918158E-9	-1.660397E-7	0.002024	1.904716E-11	0.808476	0.190038
46.231847	-0.178049	6.707365E-9	-1.660397E-7	0.002038	1.914800E-11	0.808437	0.177501
46.355767	-0.165490	5.541093E-9	-1.660397E-7	0.002039	1.914713E-11	0.808412	0.164983
46.482685	-0.152952	6.602138E-9	-1.660397E-7	0.002045	1.862274E-11	0.808413	0.152454
46.606605	-0.140374	6.830131E-9	-1.660397E-7	0.002033	1.927164E-11	0.808429	0.139919
46.731522	-0.127820	6.786286E-9	-1.660397E-7	0.002029	1.858679E-11	0.808427	0.127378
46.857440	-0.115284	6.628444E-9	-1.660397E-7	0.002034	1.902874E-11	0.808411	0.114847
46.982360	-0.102732	9.338055E-9	-1.660397E-7	0.002036	1.896824E-11	0.808489	0.102320
47.109278	-0.090174	6.374144E-9	-1.660397E-7	0.002024	1.875077E-11	0.808463	0.089773
47.233197	-0.077717	7.601800E-9	-1.660397E-7	0.002037	1.909188E-11	0.808414	0.077280
47.359116	-0.065180	8.732996E-9	-1.660397E-7	0.002042	1.872008E-11	0.808419	0.064754
47.484036	-0.052592	7.917482E-9	-1.660397E-7	0.002026	1.857188E-11	0.808446	0.052218
47.611955	-0.040042	6.645982E-9	-1.660397E-7	0.002051	1.867711E-11	0.808418	0.039702
47.734876	-0.027484	7.593031E-9	-1.660397E-7	0.002042	1.893667E-11	0.808419	0.027147
47.860794	-0.014922	8.759303E-9	-1.660397E-7	0.002048	1.846315E-11	0.808411	0.014579
47.984714	-0.002335	1.207397E-8	-1.660397E-7	0.002047	1.899630E-11	0.808487	0.002016
48.110630	0.010266	7.864869E-9	-1.660397E-7	0.002027	1.860170E-11	0.808483	-0.010559
48.236552	0.022784	8.233165E-9	-1.660397E-7	0.002039	1.881917E-11	0.808408	-0.023079
48.360469	0.035391	8.811917E-9	-1.660397E-7	0.002038	1.879111E-11	0.808408	-0.035609
48.486388	0.047990	8.285779E-9	-1.660397E-7	0.002026	1.871745E-11	0.808454	-0.048191
48.612307	0.060527	8.785610E-9	-1.660397E-7	0.002042	1.853681E-11	0.808421	-0.060708
48.737226	0.073050	8.855762E-9	-1.660397E-7	0.002039	1.914537E-11	0.808418	-0.073212
48.862144	0.085607	8.294548E-9	-1.660397E-7	0.002025	1.891036E-11	0.808455	-0.085718
48.988064	0.098186	9.715120E-9	-1.660397E-7	0.002023	1.892001E-11	0.808504	-0.098180
49.112984	0.110740	9.794041E-9	-1.660397E-7	0.002014	1.854733E-11	0.808466	-0.110721
49.237905	0.123299	8.943451E-9	-1.660397E-7	0.002011	1.848419E-11	0.808460	-0.123271
49.363823	0.135824	8.575155E-9	-1.660397E-7	0.002031	1.881303E-11	0.808418	-0.135777
49.489742	0.148387	8.434851E-9	-1.660397E-7	0.002031	1.891650E-11	0.808431	-0.148297
49.614661	0.160928	9.031141E-9	-1.660397E-7	0.002034	1.894193E-11	0.808409	-0.160809
49.738581	0.173483	9.329286E-9	-1.660397E-7	0.002049	1.901384E-11	0.808409	-0.173358
49.864497	0.186057	9.224058E-9	-1.660397E-7	0.002029	1.897876E-11	0.808434	-0.185918
49.989418	0.198633	1.269657E-8	-1.660397E-7	0.002029	1.873498E-11	0.808524	-0.198456
50.115335	0.211162	8.426082E-9	-1.660397E-7	0.002042	1.884197E-11	0.808449	-0.210963
50.240255	0.223733	8.838224E-9	-1.660397E-7	0.002021	1.876743E-11	0.808454	-0.223523
50.365176	0.236254	9.294210E-9	-1.660397E-7	0.002046	1.928567E-11	0.808428	-0.236017
50.492093	0.248822	9.259134E-9	-1.660397E-7	0.002024	1.918834E-11	0.808449	-0.248571
50.617013	0.261332	8.952220E-9	-1.660397E-7	0.002043	1.906557E-11	0.808427	-0.261056
50.740934	0.273877	8.882069E-9	-1.660397E-7	0.002046	1.870955E-11	0.808416	-0.273573
50.866852	0.286456	9.741427E-9	-1.660397E-7	0.002024	1.834564E-11	0.808429	-0.286127
50.992771	0.298946	1.352085E-8	-1.660397E-7	0.002036	1.962766E-11	0.808503	-0.298648
51.117689	0.311502	8.803148E-9	-1.660397E-7	0.002024	1.859380E-11	0.808466	-0.311142
51.242609	0.324078	9.539741E-9	-1.660397E-7	0.002020	1.835441E-11	0.808461	-0.323677
51.368527	0.336606	1.002203E-8	-1.660397E-7	0.002039	1.898928E-11	0.808430	-0.336194
51.493447	0.349171	9.434513E-9	-1.660397E-7	0.002033	1.844561E-11	0.808437	-0.348733
51.618364	0.361728	9.530972E-9	-1.660397E-7	0.002025	1.895333E-11	0.808445	-0.361282
51.744287	0.374249	8.838224E-9	-1.660397E-7	0.002024	1.899191E-11	0.808455	-0.373820
51.869205	0.386801	9.741427E-9	-1.660397E-7	0.002029	1.904014E-11	0.808437	-0.386290
51.994122	0.399371	2.128139E-8	-1.660397E-7	0.002014	1.909977E-11	0.808513	-0.398807
52.119042	0.411890	9.881731E-9	-1.660397E-7	0.002024	1.902787E-11	0.808469	-0.411349
52.245961	0.424429	9.846655E-9	-1.660397E-7	0.002030	1.880514E-11	0.808442	-0.423867
52.369880	0.436989	9.355593E-9	-1.660397E-7	0.002038	1.890949E-11	0.808436	-0.436373
52.494799	0.449535	1.004834E-8	-1.660397E-7	0.002047	1.879023E-11	0.808424	-0.448892
52.620719	0.462071	9.881731E-9	-1.660397E-7	0.002039	1.925323E-11	0.808428	-0.461445
52.745638	0.474612	1.015357E-8	-1.660397E-7	0.002054	1.908925E-11	0.808408	-0.473945
52.871554	0.487198	9.513434E-9	-1.660397E-7	0.002011	1.856925E-11	0.808482	-0.486499
52.996475	0.499764	1.366115E-8	-1.660397E-7	0.002033	1.871569E-11	0.808538	-0.499033
53.122395	0.512326	1.047802E-8	-1.660397E-7	0.002028	1.844736E-11	0.808473	-0.511546
53.247314	0.524874	9.680044E-9	-1.660397E-7	0.002028	1.877357E-11	0.808447	-0.524107
53.373231	0.537416	1.004834E-8	-1.660397E-7	0.002016	1.903225E-11	0.808453	-0.536643
53.499149	0.549949	9.934344E-9	-1.660397E-7	0.002036	1.869903E-11	0.808425	-0.549150
53.623068	0.562511	1.105677E-8	-1.660397E-7	0.002022	1.899718E-11	0.808437	-0.561688
53.747988	0.575048	8.978527E-9	-1.660397E-7	0.002043	1.886301E-11	0.808424	-0.574201
53.875906	0.587606	9.329286E-9	-1.660397E-7	0.002039	1.881478E-11	0.808443	-0.586744
53.999825	0.600164	1.317886E-8	-1.660397E-7	0.002024	1.873849E-11	0.808545	-0.599273
54.123745	0.612696	1.037279E-8	-1.660397E-7	0.002030	1.912959E-11	0.808456	-0.611779
54.250665	0.625267	1.013603E-8	-1.660397E-7	0.002012	1.898227E-11	0.808462	-0.624312
54.375583	0.637813	1.103923E-8	-1.660397E-7	0.002021	1.890159E-11	0.808451	-0.636843
54.500504	0.650361	1.055694E-8	-1.660397E-7	0.002023	1.865957E-11	0.808454	-0.649421
54.626422	0.662900	1.071478E-8	-1.660397E-7	0.002038	1.913660E-11	0.808419	-0.661946
54.750343	0.675487	9.908037E-9	-1.660397E-7	0.002035	1.924008E-11	0.808443	-0.674474
54.876259	0.688045	1.070601E-8	-1.660397E-7	0.002037	1.911994E-11	0.808445	-0.687014
55.002178	0.700627	1.362608E-8	-1.660397E-7	0.002021	1.931812E-11	0.808555	-0.699559
55.126099	0.713206	1.053940E-8	-1.660397E-7	0.002019	1.922342E-11	0.808534	-0.712093
55.252017	0.725731	9.723889E-9	-1.660397E-7	0.002037	1.911994E-11	0.808439	-0.724608
55.377936	0.738304	9.285441E-9	-1.660397E-7	0.002030	1.881917E-11	0.808469	-0.737154
55.501857	0.750833	9.837886E-9	-1.660397E-7	0.002021	1.946719E-11	0.808447	-0.749681
55.627775	0.763382	1.015357E-8	-1.660397E-7	0.002038	1.872446E-11	0.808441	-0.762199
55.753695	0.775941	1.124092E-8	-1.660397E-7	0.002020	1.905067E-11	0.808460	-0.774696
55.877614	0.788484	1.128477E-8	-1.660397E-7	0.002033	1.901647E-11	0.808441	-0.787209
56.004532	0.801019	1.366992E-8	-1.660397E-7	0.002035	1.932338E-11	0.808518	-0.799733
56.129452	0.813585	1.082001E-8	-1.660397E-7	0.002027	1.853067E-11	0.808485	-0.812263
56.253369	0.826124	9.978189E-9	-1.660397E-7	0.002054	1.914186E-11	0.808434	-0.824775
56.380287	0.838712	1.094278E-8	-1.660397E-7	0.002023	1.953384E-11	0.808447	-0.837338
56.505207	0.851245	1.049556E-8	-1.660397E-7	0.002035	1.873411E-11	0.808439	-0.849866
56.630126	0.863818	1.026757E-8	-1.660397E-7	0.002031	1.910854E-11	0.808447	-0.862410
56.756044	0.876356	1.050433E-8	-1.660397E-7	0.002035	1.920675E-11	0.808444	-0.874925
56.880966	0.888911	1.099539E-8	-1.660397E-7	0.002029	1.892089E-11	0.808447	-0.887466
57.006885	0.901453	1.503788E-8	-1.660397E-7	0.002032	1.860170E-11	0.808510	-0.899999
57.130803	0.914020	1.109185E-8	-1.660397E-7	0.002018	1.886213E-11	0.808455	-0.912537
57.256724	0.926530	1.210028E-8	-1.660397E-7	0.002040	1.886213E-11	0.808418	-0.925051
57.382642	0.939092	1.060079E-8	-1.660397E-7	0.002037	1.880689E-11	0.808431	-0.937563
57.507559	0.951651	1.126723E-8	-1.660397E-7	0.002024	1.887003E-11	0.808456	-0.950090
57.633479	0.964194	1.052187E-8	-1.660397E-7	0.002021	1.908399E-11	0.808470	-0.962621
57.758397	0.976736	1.137245E-8	-1.660397E-7	0.002004	1.889283E-11	0.808507	-0.975169
57.882318	0.989282	1.142507E-8	-1.660397E-7	0.002003	1.930058E-11	0.808492	-0.987663
58.008235	1.001847	1.335424E-8	-1.660397E-7	0.002024	1.853505E-11	0.808569	-1.000160
58.134154	1.014363	1.050433E-8	-1.660397E-7	0.002039	1.900858E-11	0.808475	-1.012684
58.259075	1.026920	9.951882E-9	-1.660397E-7	0.002040	1.868939E-11	0.808452	-1.025237
58.383993	1.039434	1.138999E-8	-1.660397E-7	0.002036	1.901734E-11	0.808438	-1.037752
58.509912	1.051975	1.182844E-8	-1.660397E-7	0.002026	1.926288E-11	0.808469	-1.050276
58.634833	1.064522	1.191613E-8	-1.660397E-7	0.002032	1.873761E-11	0.808446	-1.062766
58.759752	1.077090	1.111815E-8	-1.660397E-7	0.002024	1.927340E-11	0.808467	-1.075301
58.885671	1.089605	1.109185E-8	-1.660397E-7	0.002037	1.896648E-11	0.808428	-1.087829
59.011589	1.102169	1.420483E-8	-1.660397E-7	0.002033	1.928743E-11	0.808541	-1.100338
59.135509	1.114707	1.104800E-8	-1.660397E-7	0.002040	1.870166E-11	0.808443	-1.112846
59.260426	1.127247	1.174075E-8	-1.660397E-7	0.002042	1.943825E-11	0.808430	-1.125378
59.386348	1.139809	1.086385E-8	-1.660397E-7	0.002028	1.926726E-11	0.808450	-1.137915
59.511267	1.152366	1.061832E-8	-1.660397E-7	0.002037	1.892790E-11	0.808444	-1.150435
59.637186	1.164930	1.094278E-8	-1.660397E-7	0.002040	1.906557E-11	0.808454	-1.162958
59.762103	1.177514	1.077617E-8	-1.660397E-7	0.002028	1.928480E-11	0.808484	-1.175520
59.887023	1.190059	1.071478E-8	-1.660397E-7	0.002034	1.867097E-11	0.808474	-1.188046
60.013940	1.197663	1.409960E-8	-1.660397E-7	0.002020	1.938652E-11	0.808590	-1.194503
60.138862	1.186821	1.055694E-8	-1.660397E-7	0.002041	1.910591E-11	0.808446	-1.183080
60.262782	1.174293	1.090770E-8	-1.660397E-7	0.002015	1.854031E-11	0.808486	-1.170570
60.389698	1.161713	1.031141E-8	-1.660397E-7	0.002032	1.923832E-11	0.808466	-1.158005
60.514617	1.149183	1.087262E-8	-1.660397E-7	0.002020	1.913836E-11	0.808492	-1.145503
60.639536	1.136616	1.072355E-8	-1.660397E-7	0.002012	1.913309E-11	0.808482	-1.132972
60.765456	1.124045	1.167060E-8	-1.660397E-7	0.002025	1.897350E-11	0.808462	-1.120435
60.890373	1.111502	1.122338E-8	-1.660397E-7	0.002025	1.933303E-11	0.808450	-1.107910
61.015306	1.098965	1.423114E-8	-1.660397E-7	0.002024	1.905330E-11	0.808558	-1.095404
61.140212	1.086426	1.096031E-8	-1.660397E-7	0.002022	1.900858E-11	0.808458	-1.082884
61.265132	1.073887	1.096908E-8	-1.660397E-7	0.002033	1.896912E-11	0.808457	-1.070352
61.391050	1.061349	1.040787E-8	-1.660397E-7	0.002013	1.973991E-11	0.808482	-1.057839
61.516969	1.048791	1.016234E-8	-1.660397E-7	0.002026	1.944439E-11	0.808471	-1.045341
61.641888	1.036253	1.075863E-8	-1.660397E-7	0.002030	1.942247E-11	0.808443	-1.032804
61.766807	1.023715	1.066217E-8	-1.660397E-7	0.002037	1.897525E-11	0.808448	-1.020270
61.892726	1.011180	1.081124E-8	-1.660397E-7	0.002024	1.918922E-11	0.808467	-1.007747
62.017645	0.998620	1.317886E-8	-1.660397E-7	0.002035	1.897438E-11	0.808561	-0.995223
62.142567	0.986052	1.103923E-8	-1.660397E-7	0.002029	1.909714E-11	0.808474	-0.982683
62.268483	0.973500	1.117077E-8	-1.660397E-7	0.002028	1.906294E-11	0.808472	-0.970192
62.394403	0.961029	1.024126E-8	-1.660397E-7	0.002019	1.906733E-11	0.808489	-0.957665
62.519322	0.948468	1.021495E-8	-1.660397E-7	0.002046	1.921640E-11	0.808465	-0.945132
62.643243	0.935909	1.037279E-8	-1.660397E-7	0.002025	1.927340E-11	0.808473	-0.932620
62.770164	0.923339	1.028510E-8	-1.660397E-7	0.002039	1.906557E-11	0.808433	-0.920090
62.894079	0.910846	9.750196E-9	-1.660397E-7	0.002017	1.922605E-11	0.808477	-0.907574
63.018998	0.898305	1.363485E-8	-1.660397E-7	0.002005	1.882443E-11	0.808582	-0.895053
63.144917	0.885713	1.131107E-8	-1.660397E-7	0.002006	1.912696E-11	0.808478	-0.882513
63.269837	0.873172	1.027633E-8	-1.660397E-7	0.002029	1.865957E-11	0.808470	-0.869984
63.395755	0.860610	9.837886E-9	-1.660397E-7	0.002030	1.890861E-11	0.808438	-0.857437
63.521674	0.848081	1.024126E-8	-1.660397E-7	0.002010	1.924446E-11	0.808484	-0.844917
63.645595	0.835500	1.025880E-8	-1.660397E-7	0.002029	1.894807E-11	0.808458	-0.832372
63.771512	0.822958	9.837886E-9	-1.660397E-7	0.002027	1.941721E-11	0.808466	-0.819837
63.896433	0.810403	1.010095E-8	-1.660397E-7	0.002023	1.892089E-11	0.808471	-0.807309
